
      	X(nS)     	Ch1(mV)      


 1    	0.0000    	-19.654966  
 2    	0.0587    	-19.662842  
 3    	0.1173    	-19.644897  
 4    	0.1760    	-19.666199  
 5    	0.2346    	-19.648254  
 6    	0.2933    	-19.642090  
 7    	0.3519    	-19.646544  
 8    	0.4106    	-19.666807  
 9    	0.4692    	-19.633116  
 10   	0.5279    	-19.687012  
 11   	0.5865    	-19.644348  
 12   	0.6452    	-19.660034  
 13   	0.7038    	-19.616272  
 14   	0.7625    	-19.666199  
 15   	0.8211    	-19.697691  
 16   	0.8798    	-19.658384  
 17   	0.9384    	-19.671265  
 18   	0.9971    	-19.757202  
 19   	1.0557    	-19.704956  
 20   	1.1144    	-19.699890  
 21   	1.1730    	-19.745422  
 22   	1.2317    	-19.731382  
 23   	1.2903    	-19.718445  
 24   	1.3490    	-19.734739  
 25   	1.4076    	-19.726318  
 26   	1.4663    	-19.729673  
 27   	1.5249    	-19.831846  
 28   	1.5836    	-19.682495  
 29   	1.6422    	-19.730774  
 30   	1.7009    	-19.668457  
 31   	1.7595    	-19.599976  
 32   	1.8182    	-19.616821  
 33   	1.8768    	-19.692625  
 34   	1.9355    	-19.613464  
 35   	1.9941    	-19.624693  
 36   	2.0528    	-19.599976  
 37   	2.1114    	-19.585936  
 38   	2.1701    	-19.548279  
 39   	2.2287    	-19.475889  
 40   	2.2874    	-19.378174  
 41   	2.3460    	-19.229919  
 42   	2.4047    	-19.110899  
 43   	2.4633    	-19.108093  
 44   	2.5220    	-19.135557  
 45   	2.5806    	-19.025511  
 46   	2.6393    	-19.007017  
 47   	2.6979    	-19.000793  
 48   	2.7566    	-19.023865  
 49   	2.8152    	-19.005859  
 50   	2.8739    	-19.063721  
 51   	2.9326    	-19.001951  
 52   	2.9912    	-19.050781  
 53   	3.0499    	-19.005310  
 54   	3.1085    	-19.101316  
 55   	3.1672    	-19.111448  
 56   	3.2258    	-18.996885  
 57   	3.2845    	-19.017639  
 58   	3.3431    	-19.012024  
 59   	3.4018    	-19.058655  
 60   	3.4604    	-19.190613  
 61   	3.5191    	-19.187805  
 62   	3.5777    	-19.167603  
 63   	3.6364    	-19.129944  
 64   	3.6950    	-19.221495  
 65   	3.7537    	-19.155212  
 66   	3.8123    	-19.221495  
 67   	3.8710    	-19.289978  
 68   	3.9296    	-19.383789  
 69   	3.9883    	-19.450621  
 70   	4.0469    	-19.329893  
 71   	4.1056    	-19.289978  
 72   	4.1642    	-19.279907  
 73   	4.2229    	-19.323118  
 74   	4.2815    	-19.386597  
 75   	4.3402    	-19.307983  
 76   	4.3988    	-19.341124  
 77   	4.4575    	-19.314148  
 78   	4.5161    	-19.265869  
 79   	4.5748    	-19.252928  
 80   	4.6334    	-19.314148  
 81   	4.6921    	-19.217590  
 82   	4.7507    	-19.215879  
 83   	4.8094    	-19.195679  
 84   	4.8680    	-19.227661  
 85   	4.9267    	-19.288330  
 86   	4.9853    	-19.312439  
 87   	5.0440    	-19.282166  
 88   	5.1026    	-19.311890  
 89   	5.1613    	-19.348389  
 90   	5.2199    	-19.412964  
 91   	5.2786    	-19.411314  
 92   	5.3372    	-19.455627  
 93   	5.3959    	-19.379822  
 94   	5.4545    	-19.307983  
 95   	5.5132    	-19.260252  
 96   	5.5718    	-19.231018  
 97   	5.6305    	-19.300659  
 98   	5.6891    	-19.318665  
 99   	5.7478    	-19.407898  
 100  	5.8065    	-19.306274  
 101  	5.8651    	-19.336058  
 102  	5.9238    	-19.379822  
 103  	5.9824    	-19.228819  
 104  	6.0411    	-19.247862  
 105  	6.0997    	-19.251282  
 106  	6.1584    	-19.263060  
 107  	6.2170    	-19.225403  
 108  	6.2757    	-19.206909  
 109  	6.3343    	-19.260252  
 110  	6.3930    	-19.347839  
 111  	6.4516    	-19.354551  
 112  	6.5103    	-19.323668  
 113  	6.5689    	-19.315245  
 114  	6.6276    	-19.287781  
 115  	6.6862    	-19.325926  
 116  	6.7449    	-19.297852  
 117  	6.8035    	-19.266968  
 118  	6.8622    	-19.217590  
 119  	6.9208    	-19.179380  
 120  	6.9795    	-19.227112  
 121  	7.0381    	-19.245054  
 122  	7.0968    	-19.266968  
 123  	7.1554    	-19.223753  
 124  	7.2141    	-19.322569  
 125  	7.2727    	-19.234436  
 126  	7.3314    	-19.289978  
 127  	7.3900    	-19.328733  
 128  	7.4487    	-19.336609  
 129  	7.5073    	-19.378174  
 130  	7.5660    	-19.382629  
 131  	7.6246    	-19.365232  
 132  	7.6833    	-19.333250  
 133  	7.7419    	-19.355164  
 134  	7.8006    	-19.287781  
 135  	7.8592    	-19.324280  
 136  	7.9179    	-19.342773  
 137  	7.9765    	-19.300659  
 138  	8.0352    	-19.300659  
 139  	8.0938    	-19.307983  
 140  	8.1525    	-19.350647  
 141  	8.2111    	-19.368042  
 142  	8.2698    	-19.308533  
 143  	8.3284    	-19.358521  
 144  	8.3871    	-19.300659  
 145  	8.4457    	-19.313049  
 146  	8.5044    	-19.359617  
 147  	8.5630    	-19.378174  
 148  	8.6217    	-19.359617  
 149  	8.6804    	-19.351196  
 150  	8.7390    	-19.401731  
 151  	8.7977    	-19.383240  
 152  	8.8563    	-19.336058  
 153  	8.9150    	-19.370850  
 154  	8.9736    	-19.396666  
 155  	9.0323    	-19.289427  
 156  	9.0909    	-19.299559  
 157  	9.1496    	-19.310242  
 158  	9.2082    	-19.361876  
 159  	9.2669    	-19.319763  
 160  	9.3255    	-19.326477  
 161  	9.3842    	-19.319763  
 162  	9.4428    	-19.308533  
 163  	9.5015    	-19.380432  
 164  	9.5601    	-19.315857  
 165  	9.6188    	-19.314697  
 166  	9.6774    	-19.304016  
 167  	9.7361    	-19.333250  
 168  	9.7947    	-19.400633  
 169  	9.8534    	-19.392212  
 170  	9.9120    	-19.369749  
 171  	9.9707    	-19.461853  
 172  	10.0293   	-19.387695  
 173  	10.0880   	-19.351744  
 174  	10.1466   	-19.361876  
 175  	10.2053   	-19.361328  
 176  	10.2639   	-19.424742  
 177  	10.3226   	-19.449463  
 178  	10.3812   	-19.392212  
 179  	10.4399   	-19.392761  
 180  	10.4985   	-19.392212  
 181  	10.5572   	-19.421936  
 182  	10.6158   	-19.433777  
 183  	10.6745   	-19.402891  
 184  	10.7331   	-19.356262  
 185  	10.7918   	-19.304016  
 186  	10.8504   	-19.302917  
 187  	10.9091   	-19.279907  
 188  	10.9677   	-19.254089  
 189  	11.0264   	-19.252378  
 190  	11.0850   	-19.219788  
 191  	11.1437   	-19.190613  
 192  	11.2023   	-19.192320  
 193  	11.2610   	-19.140074  
 194  	11.3196   	-19.172668  
 195  	11.3783   	-19.159180  
 196  	11.4370   	-19.137815  
 197  	11.4956   	-19.172056  
 198  	11.5543   	-19.158630  
 199  	11.6129   	-19.081116  
 200  	11.6716   	-19.058655  
 201  	11.7302   	-19.119873  
 202  	11.7889   	-19.097412  
 203  	11.8475   	-19.050232  
 204  	11.9062   	-19.050232  
 205  	11.9648   	-19.131653  
 206  	12.0235   	-19.045715  
 207  	12.0821   	-19.027771  
 208  	12.1408   	-19.067076  
 209  	12.1994   	-19.052490  
 210  	12.2581   	-18.947449  
 211  	12.3167   	-18.943542  
 212  	12.3754   	-19.028318  
 213  	12.4340   	-19.067076  
 214  	12.4927   	-19.003601  
 215  	12.5513   	-18.905945  
 216  	12.6100   	-18.844177  
 217  	12.6686   	-18.813841  
 218  	12.7273   	-18.746458  
 219  	12.7859   	-18.705994  
 220  	12.8446   	-18.739134  
 221  	12.9032   	-18.726807  
 222  	12.9619   	-18.705994  
 223  	13.0205   	-18.761047  
 224  	13.0792   	-18.705442  
 225  	13.1378   	-18.642578  
 226  	13.1965   	-18.715025  
 227  	13.2551   	-18.684692  
 228  	13.3138   	-18.638611  
 229  	13.3724   	-18.567322  
 230  	13.4311   	-18.530272  
 231  	13.4897   	-18.502197  
 232  	13.5484   	-18.428650  
 233  	13.6070   	-18.349426  
 234  	13.6657   	-18.300049  
 235  	13.7243   	-18.166382  
 236  	13.7830   	-18.160215  
 237  	13.8416   	-18.133850  
 238  	13.9003   	-17.987244  
 239  	13.9589   	-17.744141  
 240  	14.0176   	-17.534666  
 241  	14.0762   	-17.150574  
 242  	14.1349   	-16.716553  
 243  	14.1935   	-16.195435  
 244  	14.2522   	-15.393005  
 245  	14.3109   	-14.052673  
 246  	14.3695   	-12.263123  
 247  	14.4282   	-10.639709  
 248  	14.4868   	-9.489746   
 249  	14.5455   	-8.617126   
 250  	14.6041   	-7.691711   
 251  	14.6628   	-5.315368   
 252  	14.7214   	10.950867   
 253  	14.7801   	33.054077   
 254  	14.8387   	50.920712   
 255  	14.8974   	64.975639   
 256  	14.9560   	75.900574   
 257  	15.0147   	83.827576   
 258  	15.0733   	90.249817   
 259  	15.1320   	94.827812   
 260  	15.1906   	98.045959   
 261  	15.2493   	101.091118  
 262  	15.3079   	103.475281  
 263  	15.3666   	105.628716  
 264  	15.4252   	106.948296  
 265  	15.4839   	108.098930  
 266  	15.5425   	109.124817  
 267  	15.6012   	109.858215  
 268  	15.6598   	110.639221  
 269  	15.7185   	111.311333  
 270  	15.7771   	111.987976  
 271  	15.8358   	112.492729  
 272  	15.8944   	112.933655  
 273  	15.9531   	113.298637  
 274  	16.0117   	113.867981  
 275  	16.0704   	114.394707  
 276  	16.1290   	114.813538  
 277  	16.1877   	115.316223  
 278  	16.2463   	115.799614  
 279  	16.3050   	116.188774  
 280  	16.3636   	116.435844  
 281  	16.4223   	116.631157  
 282  	16.4809   	116.894096  
 283  	16.5396   	117.102356  
 284  	16.5982   	117.424133  
 285  	16.6569   	117.797539  
 286  	16.7155   	118.031059  
 287  	16.7742   	118.043999  
 288  	16.8328   	118.114197  
 289  	16.8915   	118.300591  
 290  	16.9501   	118.508354  
 291  	17.0088   	118.584282  
 292  	17.0674   	118.800957  
 293  	17.1261   	118.962090  
 294  	17.1848   	119.010437  
 295  	17.2434   	119.032898  
 296  	17.3021   	118.959892  
 297  	17.3607   	118.865532  
 298  	17.4194   	118.689751  
 299  	17.4780   	118.512268  
 300  	17.5367   	118.493835  
 301  	17.5953   	118.565735  
 302  	17.6540   	118.594910  
 303  	17.7126   	118.651665  
 304  	17.7713   	118.690361  
 305  	17.8299   	118.734673  
 306  	17.8886   	118.850403  
 307  	17.9472   	118.868340  
 308  	18.0059   	118.996399  
 309  	18.0645   	119.172661  
 310  	18.1232   	119.365784  
 311  	18.1818   	119.413628  
 312  	18.2405   	119.547180  
 313  	18.2991   	119.519707  
 314  	18.3578   	119.685852  
 315  	18.4164   	119.723572  
 316  	18.4751   	119.815605  
 317  	18.5337   	119.867851  
 318  	18.5924   	119.913383  
 319  	18.6510   	120.072807  
 320  	18.7097   	120.175591  
 321  	18.7683   	120.293510  
 322  	18.8270   	120.353569  
 323  	18.8856   	120.393982  
 324  	18.9443   	120.465385  
 325  	19.0029   	120.451225  
 326  	19.0616   	120.383850  
 327  	19.1202   	120.479301  
 328  	19.1789   	120.392876  
 329  	19.2375   	120.415833  
 330  	19.2962   	120.410217  
 331  	19.3548   	120.356384  
 332  	19.4135   	120.448547  
 333  	19.4721   	120.283989  
 334  	19.5308   	120.267143  
 335  	19.5894   	120.179497  
 336  	19.6481   	120.252502  
 337  	19.7067   	120.220520  
 338  	19.7654   	120.221001  
 339  	19.8240   	120.232849  
 340  	19.8827   	120.127251  
 341  	19.9413   	120.101990  
 342  	20.0000   	120.112602  
 343  	20.0587   	120.167168  
 344  	20.1173   	120.201477  
 345  	20.1760   	120.309753  
 346  	20.2346   	120.336731  
 347  	20.2933   	120.262024  
 348  	20.3519   	120.113823  
 349  	20.4106   	119.913879  
 350  	20.4692   	119.778618  
 351  	20.5279   	119.765076  
 352  	20.5865   	119.798149  
 353  	20.6452   	119.881897  
 354  	20.7038   	119.927299  
 355  	20.7625   	119.884697  
 356  	20.8211   	119.834778  
 357  	20.8798   	119.857719  
 358  	20.9384   	119.792534  
 359  	20.9971   	119.681938  
 360  	21.0557   	119.530327  
 361  	21.1144   	119.478691  
 362  	21.1730   	119.367004  
 363  	21.2317   	119.244560  
 364  	21.2903   	119.166565  
 365  	21.3490   	119.008118  
 366  	21.4076   	118.777893  
 367  	21.4663   	118.730278  
 368  	21.5249   	118.713928  
 369  	21.5836   	118.669006  
 370  	21.6422   	118.434258  
 371  	21.7009   	118.318657  
 372  	21.7595   	118.219780  
 373  	21.8182   	117.850883  
 374  	21.8768   	117.796928  
 375  	21.9355   	117.623466  
 376  	21.9941   	117.362846  
 377  	22.0528   	117.116386  
 378  	22.1114   	116.863701  
 379  	22.1701   	116.691956  
 380  	22.2287   	116.494804  
 381  	22.2874   	116.382507  
 382  	22.3460   	116.395927  
 383  	22.4047   	116.326355  
 384  	22.4633   	116.262260  
 385  	22.5220   	116.191582  
 386  	22.5806   	116.225883  
 387  	22.6393   	116.052299  
 388  	22.6979   	115.945129  
 389  	22.7566   	115.858574  
 390  	22.8152   	115.868103  
 391  	22.8739   	115.993340  
 392  	22.9326   	116.109550  
 393  	22.9912   	116.217339  
 394  	23.0499   	116.221252  
 395  	23.1085   	116.330261  
 396  	23.1672   	116.362244  
 397  	23.2258   	116.338196  
 398  	23.2845   	116.298279  
 399  	23.3431   	116.308891  
 400  	23.4018   	116.267387  
 401  	23.4604   	116.228577  
 402  	23.5191   	116.183159  
 403  	23.5777   	116.174133  
 404  	23.6364   	116.187553  
 405  	23.6950   	116.216248  
 406  	23.7537   	116.397034  
 407  	23.8123   	116.493706  
 408  	23.8710   	116.667175  
 409  	23.9296   	116.758118  
 410  	23.9883   	116.801933  
 411  	24.0469   	116.924858  
 412  	24.1056   	116.888489  
 413  	24.1642   	116.790710  
 414  	24.2229   	116.658745  
 415  	24.2815   	116.635803  
 416  	24.3402   	116.606499  
 417  	24.3988   	116.558769  
 418  	24.4575   	116.489807  
 419  	24.5161   	116.370178  
 420  	24.5748   	116.233696  
 421  	24.6334   	116.066338  
 422  	24.6921   	116.029839  
 423  	24.7507   	115.975891  
 424  	24.8094   	116.001274  
 425  	24.8680   	115.984917  
 426  	24.9267   	115.911430  
 427  	24.9853   	115.791199  
 428  	25.0440   	115.485161  
 429  	25.1026   	115.187065  
 430  	25.1613   	114.845520  
 431  	25.2199   	114.573296  
 432  	25.2786   	114.122368  
 433  	25.3372   	113.574883  
 434  	25.3959   	112.924614  
 435  	25.4545   	112.306450  
 436  	25.5132   	111.532524  
 437  	25.5718   	110.709404  
 438  	25.6305   	109.705994  
 439  	25.6891   	108.850151  
 440  	25.7478   	107.921936  
 441  	25.8065   	106.972954  
 442  	25.8651   	105.986389  
 443  	25.9238   	104.997009  
 444  	25.9824   	103.846977  
 445  	26.0411   	102.693169  
 446  	26.0997   	101.688042  
 447  	26.1584   	100.784477  
 448  	26.2170   	99.941711   
 449  	26.2757   	99.149963   
 450  	26.3343   	98.329521   
 451  	26.3930   	97.473694   
 452  	26.4516   	96.366997   
 453  	26.5103   	95.308525   
 454  	26.5689   	94.054016   
 455  	26.6276   	92.794495   
 456  	26.6862   	91.444153   
 457  	26.7449   	90.062187   
 458  	26.8035   	88.576965   
 459  	26.8622   	86.995659   
 460  	26.9208   	85.521179   
 461  	26.9795   	83.980888   
 462  	27.0381   	82.431702   
 463  	27.0968   	80.836975   
 464  	27.1554   	79.270325   
 465  	27.2141   	77.733452   
 466  	27.2727   	76.176331   
 467  	27.3314   	74.741020   
 468  	27.3900   	73.366394   
 469  	27.4487   	72.002991   
 470  	27.5073   	70.641899   
 471  	27.5660   	69.198792   
 472  	27.6246   	67.710258   
 473  	27.6833   	66.231140   
 474  	27.7419   	64.527405   
 475  	27.8006   	62.828304   
 476  	27.8592   	60.933163   
 477  	27.9179   	58.855038   
 478  	27.9765   	56.767761   
 479  	28.0352   	54.829403   
 480  	28.0938   	53.182430   
 481  	28.1525   	51.413635   
 482  	28.2111   	49.401672   
 483  	28.2698   	47.362850   
 484  	28.3284   	45.288631   
 485  	28.3871   	43.140682   
 486  	28.4457   	40.973816   
 487  	28.5044   	38.722107   
 488  	28.5630   	36.679871   
 489  	28.6217   	34.698792   
 490  	28.6804   	32.338135   
 491  	28.7390   	30.632813   
 492  	28.7977   	29.120605   
 493  	28.8563   	27.604492   
 494  	28.9150   	26.132751   
 495  	28.9736   	24.806458   
 496  	29.0323   	23.491331   
 497  	29.0909   	22.211607   
 498  	29.1496   	20.947081   
 499  	29.2082   	19.692078   
 500  	29.2669   	18.568480   
 501  	29.3255   	17.494263   
 502  	29.3842   	16.350464   
 503  	29.4428   	15.204407   
 504  	29.5015   	14.009459   
 505  	29.5601   	12.993103   
 506  	29.6188   	11.898132   
 507  	29.6774   	10.876159   
 508  	29.7361   	9.680115    
 509  	29.7947   	8.455994    
 510  	29.8534   	7.221191    
 511  	29.9120   	5.947692    
 512  	29.9707   	4.592712    
 513  	30.0293   	3.323120    
 514  	30.0880   	2.065308    
 515  	30.1466   	0.843445    
 516  	30.2053   	-0.368347   
 517  	30.2639   	-1.514404   
 518  	30.3226   	-2.758728   
 519  	30.3812   	-3.944702   
 520  	30.4399   	-5.073914   
 521  	30.4985   	-6.074523   
 522  	30.5572   	-7.005005   
 523  	30.6158   	-7.816955   
 524  	30.6745   	-8.384094   
 525  	30.7331   	-9.010193   
 526  	30.7918   	-9.434692   
 527  	30.8504   	-9.809813   
 528  	30.9091   	-10.053527  
 529  	30.9677   	-10.422973  
 530  	31.0264   	-10.757079  
 531  	31.0850   	-11.040649  
 532  	31.1437   	-11.449463  
 533  	31.2023   	-11.867797  
 534  	31.2610   	-12.289490  
 535  	31.3196   	-12.825744  
 536  	31.3783   	-13.402404  
 537  	31.4370   	-14.036377  
 538  	31.4956   	-14.528258  
 539  	31.5543   	-15.042052  
 540  	31.6129   	-15.521056  
 541  	31.6716   	-15.932067  
 542  	31.7302   	-16.228027  
 543  	31.7889   	-16.551451  
 544  	31.8475   	-16.749084  
 545  	31.9062   	-17.034912  
 546  	31.9648   	-17.270750  
 547  	32.0235   	-17.341490  
 548  	32.0821   	-17.442017  
 549  	32.1408   	-17.672239  
 550  	32.1994   	-17.801941  
 551  	32.2581   	-17.933348  
 552  	32.3167   	-17.968750  
 553  	32.3754   	-18.064758  
 554  	32.4340   	-18.153503  
 555  	32.4927   	-18.226501  
 556  	32.5513   	-18.376402  
 557  	32.6100   	-18.478575  
 558  	32.6686   	-18.566771  
 559  	32.7273   	-18.585264  
 560  	32.7859   	-18.621216  
 561  	32.8446   	-18.755432  
 562  	32.9032   	-18.802612  
 563  	32.9619   	-18.846985  
 564  	33.0205   	-19.010376  
 565  	33.0792   	-19.028868  
 566  	33.1378   	-19.115906  
 567  	33.1965   	-19.193420  
 568  	33.2551   	-19.282715  
 569  	33.3138   	-19.345032  
 570  	33.3724   	-19.486511  
 571  	33.4311   	-19.526428  
 572  	33.4897   	-19.610044  
 573  	33.5484   	-19.616272  
 574  	33.6070   	-19.715637  
 575  	33.6657   	-19.775696  
 576  	33.7243   	-19.843079  
 577  	33.7830   	-19.736389  
 578  	33.8416   	-19.747620  
 579  	33.9003   	-19.785278  
 580  	33.9589   	-19.797606  
 581  	34.0176   	-19.724058  
 582  	34.0762   	-19.727415  
 583  	34.1349   	-19.804382  
 584  	34.1935   	-19.827393  
 585  	34.2522   	-19.930725  
 586  	34.3109   	-19.975647  
 587  	34.3695   	-19.875120  
 588  	34.4282   	-19.918335  
 589  	34.4868   	-19.887451  
 590  	34.5455   	-19.832458  
 591  	34.6041   	-19.926758  
 592  	34.6628   	-19.896423  
 593  	34.7214   	-19.926208  
 594  	34.7801   	-19.906006  
 595  	34.8387   	-19.796509  
 596  	34.8974   	-19.760557  
 597  	34.9560   	-19.752686  
 598  	35.0147   	-19.546082  
 599  	35.0733   	-19.473631  
 600  	35.1320   	-19.328184  
 601  	35.1906   	-19.089539  
 602  	35.2493   	-18.648193  
 603  	35.3079   	-18.027710  
 604  	35.3666   	-17.312864  
 605  	35.4252   	-16.558167  
 606  	35.4839   	-15.700745  
 607  	35.5425   	-14.887085  
 608  	35.6012   	-11.538757  
 609  	35.6598   	-1.031494   
 610  	35.7185   	5.601746    
 611  	35.7771   	8.809752    
 612  	35.8358   	9.397644    
 613  	35.8944   	8.626160    
 614  	35.9531   	6.900024    
 615  	36.0117   	5.128418    
 616  	36.0704   	3.215881    
 617  	36.1290   	1.003479    
 618  	36.1877   	-1.002869   
 619  	36.2463   	-2.840759   
 620  	36.3050   	-4.578064   
 621  	36.3636   	-6.283447   
 622  	36.4223   	-7.747864   
 623  	36.4809   	-9.035461   
 624  	36.5396   	-10.231505  
 625  	36.5982   	-11.097350  
 626  	36.6569   	-11.927856  
 627  	36.7155   	-12.616881  
 628  	36.7742   	-13.174987  
 629  	36.8328   	-13.829162  
 630  	36.8915   	-14.331726  
 631  	36.9501   	-14.688293  
 632  	37.0088   	-15.112854  
 633  	37.0674   	-15.469970  
 634  	37.1261   	-15.660889  
 635  	37.1848   	-15.882690  
 636  	37.2434   	-15.962951  
 637  	37.3021   	-16.190977  
 638  	37.3607   	-16.258360  
 639  	37.4194   	-16.371214  
 640  	37.4780   	-16.480711  
 641  	37.5367   	-16.700806  
 642  	37.5953   	-16.838928  
 643  	37.6540   	-17.006287  
 644  	37.7126   	-17.140501  
