
      	X(nS)     	Ch1(mV)      


 1    	0.0000    	-19.342224  
 2    	0.0587    	-19.292786  
 3    	0.1173    	-19.209717  
 4    	0.1760    	-19.183289  
 5    	0.2346    	-19.238892  
 6    	0.2933    	-19.281553  
 7    	0.3519    	-19.266418  
 8    	0.4106    	-19.344482  
 9    	0.4692    	-19.336609  
 10   	0.5279    	-19.309082  
 11   	0.5865    	-19.275391  
 12   	0.6452    	-19.343933  
 13   	0.7038    	-19.300659  
 14   	0.7625    	-19.308533  
 15   	0.8211    	-19.346741  
 16   	0.8798    	-19.277649  
 17   	0.9384    	-19.301817  
 18   	0.9971    	-19.283812  
 19   	1.0557    	-19.276550  
 20   	1.1144    	-19.260803  
 21   	1.1730    	-19.303467  
 22   	1.2317    	-19.339966  
 23   	1.2903    	-19.330992  
 24   	1.3490    	-19.231018  
 25   	1.4076    	-19.249023  
 26   	1.4663    	-19.273743  
 27   	1.5249    	-19.297302  
 28   	1.5836    	-19.279907  
 29   	1.6422    	-19.342773  
 30   	1.7009    	-19.269226  
 31   	1.7595    	-19.259703  
 32   	1.8182    	-19.291136  
 33   	1.8768    	-19.166443  
 34   	1.9355    	-19.260252  
 35   	1.9941    	-19.212524  
 36   	2.0528    	-19.143982  
 37   	2.1114    	-19.088989  
 38   	2.1701    	-19.158020  
 39   	2.2287    	-19.045715  
 40   	2.2874    	-18.985657  
 41   	2.3460    	-18.895813  
 42   	2.4047    	-18.863220  
 43   	2.4633    	-18.756531  
 44   	2.5220    	-18.751524  
 45   	2.5806    	-18.711060  
 46   	2.6393    	-18.700989  
 47   	2.6979    	-18.740843  
 48   	2.7566    	-18.696472  
 49   	2.8152    	-18.688049  
 50   	2.8739    	-18.600462  
 51   	2.9326    	-18.597107  
 52   	2.9912    	-18.690857  
 53   	3.0499    	-18.686340  
 54   	3.1085    	-18.785215  
 55   	3.1672    	-18.735229  
 56   	3.2258    	-18.688049  
 57   	3.2845    	-18.735779  
 58   	3.3431    	-18.780699  
 59   	3.4018    	-18.815491  
 60   	3.4604    	-18.834595  
 61   	3.5191    	-18.789673  
 62   	3.5777    	-18.795288  
 63   	3.6364    	-18.903687  
 64   	3.6950    	-18.895262  
 65   	3.7537    	-18.832947  
 66   	3.8123    	-18.849180  
 67   	3.8710    	-18.836853  
 68   	3.9296    	-18.835754  
 69   	3.9883    	-18.941833  
 70   	4.0469    	-18.818298  
 71   	4.1056    	-18.760498  
 72   	4.1642    	-18.808777  
 73   	4.2229    	-18.966553  
 74   	4.2815    	-19.043516  
 75   	4.3402    	-18.989012  
 76   	4.3988    	-18.949707  
 77   	4.4575    	-18.900879  
 78   	4.5161    	-18.884581  
 79   	4.5748    	-18.950867  
 80   	4.6334    	-18.909302  
 81   	4.6921    	-18.865479  
 82   	4.7507    	-18.884033  
 83   	4.8094    	-18.851990  
 84   	4.8680    	-18.797546  
 85   	4.9267    	-18.892454  
 86   	4.9853    	-18.868835  
 87   	5.0440    	-18.837950  
 88   	5.1026    	-18.948608  
 89   	5.1613    	-18.867737  
 90   	5.2199    	-18.901428  
 91   	5.2786    	-18.932312  
 92   	5.3372    	-18.899170  
 93   	5.3959    	-18.830139  
 94   	5.4545    	-18.807066  
 95   	5.5132    	-18.827330  
 96   	5.5718    	-18.846373  
 97   	5.6305    	-18.922791  
 98   	5.6891    	-18.916563  
 99   	5.7478    	-19.031675  
 100  	5.8065    	-18.977234  
 101  	5.8651    	-18.924437  
 102  	5.9238    	-18.886839  
 103  	5.9824    	-18.791382  
 104  	6.0411    	-18.796448  
 105  	6.0997    	-18.727356  
 106  	6.1584    	-18.729065  
 107  	6.2170    	-18.688599  
 108  	6.2757    	-18.743103  
 109  	6.3343    	-18.814390  
 110  	6.3930    	-18.834045  
 111  	6.4516    	-18.830139  
 112  	6.5103    	-18.873352  
 113  	6.5689    	-18.806517  
 114  	6.6276    	-18.782408  
 115  	6.6862    	-18.867737  
 116  	6.7449    	-18.763306  
 117  	6.8035    	-18.817198  
 118  	6.8622    	-18.691954  
 119  	6.9208    	-18.719482  
 120  	6.9795    	-18.698181  
 121  	7.0381    	-18.656067  
 122  	7.0968    	-18.671753  
 123  	7.1554    	-18.747007  
 124  	7.2141    	-18.771179  
 125  	7.2727    	-18.795288  
 126  	7.3314    	-18.782957  
 127  	7.3900    	-18.859863  
 128  	7.4487    	-18.826721  
 129  	7.5073    	-18.811583  
 130  	7.5660    	-18.875061  
 131  	7.6246    	-18.830139  
 132  	7.6833    	-18.851439  
 133  	7.7419    	-18.859863  
 134  	7.8006    	-18.926695  
 135  	7.8592    	-18.984558  
 136  	7.9179    	-18.930603  
 137  	7.9765    	-18.976135  
 138  	8.0352    	-18.812681  
 139  	8.0938    	-18.868835  
 140  	8.1525    	-18.884581  
 141  	8.2111    	-18.957031  
 142  	8.2698    	-18.899170  
 143  	8.3284    	-18.975525  
 144  	8.3871    	-18.895262  
 145  	8.4457    	-18.838562  
 146  	8.5044    	-18.874449  
 147  	8.5630    	-18.827881  
 148  	8.6217    	-18.909851  
 149  	8.6804    	-18.875610  
 150  	8.7390    	-18.821714  
 151  	8.7977    	-18.900879  
 152  	8.8563    	-18.838562  
 153  	8.9150    	-18.851439  
 154  	8.9736    	-18.843016  
 155  	9.0323    	-18.803162  
 156  	9.0909    	-18.781250  
 157  	9.1496    	-18.752625  
 158  	9.2082    	-18.776182  
 159  	9.2669    	-18.789673  
 160  	9.3255    	-18.759338  
 161  	9.3842    	-18.753174  
 162  	9.4428    	-18.764952  
 163  	9.5015    	-18.869446  
 164  	9.5601    	-18.924437  
 165  	9.6188    	-18.872803  
 166  	9.6774    	-18.977783  
 167  	9.7361    	-18.942444  
 168  	9.7947    	-18.880064  
 169  	9.8534    	-18.866638  
 170  	9.9120    	-18.850889  
 171  	9.9707    	-18.879515  
 172  	10.0293   	-18.888489  
 173  	10.0880   	-18.887938  
 174  	10.1466   	-18.873352  
 175  	10.2053   	-18.878967  
 176  	10.2639   	-18.919983  
 177  	10.3226   	-18.889099  
 178  	10.3812   	-18.840757  
 179  	10.4399   	-18.827881  
 180  	10.4985   	-18.775084  
 181  	10.5572   	-18.790222  
 182  	10.6158   	-18.796997  
 183  	10.6745   	-18.803162  
 184  	10.7331   	-18.798096  
 185  	10.7918   	-18.716675  
 186  	10.8504   	-18.709410  
 187  	10.9091   	-18.680725  
 188  	10.9677   	-18.709410  
 189  	11.0264   	-18.753723  
 190  	11.0850   	-18.741941  
 191  	11.1437   	-18.763306  
 192  	11.2023   	-18.776794  
 193  	11.2610   	-18.758789  
 194  	11.3196   	-18.784607  
 195  	11.3783   	-18.768921  
 196  	11.4370   	-18.736326  
 197  	11.4956   	-18.696472  
 198  	11.5543   	-18.677917  
 199  	11.6129   	-18.669495  
 200  	11.6716   	-18.624022  
 201  	11.7302   	-18.618408  
 202  	11.7889   	-18.561705  
 203  	11.8475   	-18.603821  
 204  	11.9062   	-18.597107  
 205  	11.9648   	-18.620667  
 206  	12.0235   	-18.588684  
 207  	12.0821   	-18.539795  
 208  	12.1408   	-18.497131  
 209  	12.1994   	-18.483091  
 210  	12.2581   	-18.486448  
 211  	12.3167   	-18.570129  
 212  	12.3754   	-18.535337  
 213  	12.4340   	-18.488157  
 214  	12.4927   	-18.446045  
 215  	12.5513   	-18.445496  
 216  	12.6100   	-18.415159  
 217  	12.6686   	-18.344419  
 218  	12.7273   	-18.260742  
 219  	12.7859   	-18.271971  
 220  	12.8446   	-18.159666  
 221  	12.9032   	-18.237730  
 222  	12.9619   	-18.166382  
 223  	13.0205   	-18.100708  
 224  	13.0792   	-18.101807  
 225  	13.1378   	-18.088318  
 226  	13.1965   	-18.106873  
 227  	13.2551   	-18.106873  
 228  	13.3138   	-18.011412  
 229  	13.3724   	-18.007507  
 230  	13.4311   	-17.910339  
 231  	13.4897   	-17.847473  
 232  	13.5484   	-17.842407  
 233  	13.6070   	-17.760435  
 234  	13.6657   	-17.781189  
 235  	13.7243   	-17.778381  
 236  	13.7830   	-17.693604  
 237  	13.8416   	-17.540283  
 238  	13.9003   	-17.407776  
 239  	13.9589   	-17.273010  
 240  	14.0176   	-17.108459  
 241  	14.0762   	-16.738462  
 242  	14.1349   	-16.332458  
 243  	14.1935   	-15.737244  
 244  	14.2522   	-14.967407  
 245  	14.3109   	-13.556273  
 246  	14.3695   	-11.824523  
 247  	14.4282   	-10.025452  
 248  	14.4868   	-8.943358   
 249  	14.5455   	-8.136475   
 250  	14.6041   	-7.235778   
 251  	14.6628   	-5.035706   
 252  	14.7214   	9.693053    
 253  	14.7801   	33.604370   
 254  	14.8387   	52.099300   
 255  	14.8974   	66.124443   
 256  	14.9560   	76.918030   
 257  	15.0147   	84.760803   
 258  	15.0733   	91.246391   
 259  	15.1320   	95.774597   
 260  	15.1906   	98.991516   
 261  	15.2493   	102.073784  
 262  	15.3079   	104.425354  
 263  	15.3666   	106.524956  
 264  	15.4252   	107.677795  
 265  	15.4839   	108.918144  
 266  	15.5425   	109.875542  
 267  	15.6012   	110.635307  
 268  	15.6598   	111.445000  
 269  	15.7185   	112.224915  
 270  	15.7771   	112.799377  
 271  	15.8358   	113.315483  
 272  	15.8944   	113.785950  
 273  	15.9531   	114.168388  
 274  	16.0117   	114.717590  
 275  	16.0704   	115.203911  
 276  	16.1290   	115.608215  
 277  	16.1877   	116.064629  
 278  	16.2463   	116.544731  
 279  	16.3050   	116.822083  
 280  	16.3636   	117.075989  
 281  	16.4223   	117.202332  
 282  	16.4809   	117.424133  
 283  	16.5396   	117.717827  
 284  	16.5982   	117.985039  
 285  	16.6569   	118.260803  
 286  	16.7155   	118.466850  
 287  	16.7742   	118.593803  
 288  	16.8328   	118.676811  
 289  	16.8915   	118.835266  
 290  	16.9501   	119.007622  
 291  	17.0088   	119.186699  
 292  	17.0674   	119.362480  
 293  	17.1261   	119.502869  
 294  	17.1848   	119.593315  
 295  	17.2434   	119.695488  
 296  	17.3021   	119.623589  
 297  	17.3607   	119.507378  
 298  	17.4194   	119.359184  
 299  	17.4780   	119.235039  
 300  	17.5367   	119.135559  
 301  	17.5953   	119.091240  
 302  	17.6540   	119.070488  
 303  	17.7126   	119.188416  
 304  	17.7713   	119.113708  
 305  	17.8299   	119.226013  
 306  	17.8886   	119.395073  
 307  	17.9472   	119.417534  
 308  	18.0059   	119.519096  
 309  	18.0645   	119.751640  
 310  	18.1232   	119.875786  
 311  	18.1818   	120.005913  
 312  	18.2405   	120.150322  
 313  	18.2991   	120.119926  
 314  	18.3578   	120.165459  
 315  	18.4164   	120.143608  
 316  	18.4751   	120.271538  
 317  	18.5337   	120.343437  
 318  	18.5924   	120.477600  
 319  	18.6510   	120.657280  
 320  	18.7097   	120.737114  
 321  	18.7683   	120.843803  
 322  	18.8270   	120.934135  
 323  	18.8856   	120.990898  
 324  	18.9443   	120.968437  
 325  	19.0029   	120.995903  
 326  	19.0616   	121.000420  
 327  	19.1202   	121.059387  
 328  	19.1789   	121.056580  
 329  	19.2375   	121.103203  
 330  	19.2962   	121.035210  
 331  	19.3548   	121.004448  
 332  	19.4135   	120.939758  
 333  	19.4721   	120.958305  
 334  	19.5308   	120.898735  
 335  	19.5894   	120.883606  
 336  	19.6481   	120.822441  
 337  	19.7067   	120.818535  
 338  	19.7654   	120.791069  
 339  	19.8240   	120.695000  
 340  	19.8827   	120.708427  
 341  	19.9413   	120.598938  
 342  	20.0000   	120.662903  
 343  	20.0587   	120.622009  
 344  	20.1173   	120.651665  
 345  	20.1760   	120.742737  
 346  	20.2346   	120.753960  
 347  	20.2933   	120.853821  
 348  	20.3519   	120.673149  
 349  	20.4106   	120.550110  
 350  	20.4692   	120.456841  
 351  	20.5279   	120.399590  
 352  	20.5865   	120.385063  
 353  	20.6452   	120.528740  
 354  	20.7038   	120.543999  
 355  	20.7625   	120.573662  
 356  	20.8211   	120.538872  
 357  	20.8798   	120.501274  
 358  	20.9384   	120.377129  
 359  	20.9971   	120.264832  
 360  	21.0557   	120.176086  
 361  	21.1144   	120.100883  
 362  	21.1730   	119.935844  
 363  	21.2317   	119.768486  
 364  	21.2903   	119.559013  
 365  	21.3490   	119.440491  
 366  	21.4076   	119.285583  
 367  	21.4663   	119.213684  
 368  	21.5249   	119.114799  
 369  	21.5836   	118.997490  
 370  	21.6422   	118.834045  
 371  	21.7009   	118.624565  
 372  	21.7595   	118.483704  
 373  	21.8182   	118.363579  
 374  	21.8768   	118.152885  
 375  	21.9355   	118.054741  
 376  	21.9941   	117.917656  
 377  	22.0528   	117.716125  
 378  	22.1114   	117.565002  
 379  	22.1701   	117.390923  
 380  	22.2287   	117.295471  
 381  	22.2874   	117.201225  
 382  	22.3460   	117.000175  
 383  	22.4047   	116.922661  
 384  	22.4633   	116.926079  
 385  	22.5220   	116.832329  
 386  	22.5806   	116.813782  
 387  	22.6393   	116.614319  
 388  	22.6979   	116.591362  
 389  	22.7566   	116.510551  
 390  	22.8152   	116.426323  
 391  	22.8739   	116.469543  
 392  	22.9326   	116.555473  
 393  	22.9912   	116.590881  
 394  	23.0499   	116.711487  
 395  	23.1085   	116.823784  
 396  	23.1672   	116.798035  
 397  	23.2258   	116.837334  
 398  	23.2845   	116.788994  
 399  	23.3431   	116.838921  
 400  	23.4018   	116.736267  
 401  	23.4604   	116.759819  
 402  	23.5191   	116.681206  
 403  	23.5777   	116.699768  
 404  	23.6364   	116.721008  
 405  	23.6950   	116.813782  
 406  	23.7537   	116.916557  
 407  	23.8123   	117.015930  
 408  	23.8710   	117.236633  
 409  	23.9296   	117.334778  
 410  	23.9883   	117.309013  
 411  	24.0469   	117.336479  
 412  	24.1056   	117.352844  
 413  	24.1642   	117.309013  
 414  	24.2229   	117.234917  
 415  	24.2815   	117.200615  
 416  	24.3402   	117.156303  
 417  	24.3988   	117.098442  
 418  	24.4575   	117.048393  
 419  	24.5161   	116.901917  
 420  	24.5748   	116.772148  
 421  	24.6334   	116.552551  
 422  	24.6921   	116.437561  
 423  	24.7507   	116.450500  
 424  	24.8094   	116.445366  
 425  	24.8680   	116.408257  
 426  	24.9267   	116.416801  
 427  	24.9853   	116.285332  
 428  	25.0440   	115.998352  
 429  	25.1026   	115.746887  
 430  	25.1613   	115.371758  
 431  	25.2199   	115.053284  
 432  	25.2786   	114.638359  
 433  	25.3372   	114.139709  
 434  	25.3959   	113.580498  
 435  	25.4545   	112.802788  
 436  	25.5132   	111.949768  
 437  	25.5718   	111.061462  
 438  	25.6305   	110.099663  
 439  	25.6891   	109.219658  
 440  	25.7478   	108.370659  
 441  	25.8065   	107.422783  
 442  	25.8651   	106.446342  
 443  	25.9238   	105.376038  
 444  	25.9824   	104.330498  
 445  	26.0411   	103.221008  
 446  	26.0997   	102.171448  
 447  	26.1584   	101.230896  
 448  	26.2170   	100.397514  
 449  	26.2757   	99.556450   
 450  	26.3343   	98.760796   
 451  	26.3930   	97.857849   
 452  	26.4516   	96.926331   
 453  	26.5103   	95.831848   
 454  	26.5689   	94.699768   
 455  	26.6276   	93.445854   
 456  	26.6862   	91.948914   
 457  	26.7449   	90.469299   
 458  	26.8035   	89.043030   
 459  	26.8622   	87.586975   
 460  	26.9208   	86.009094   
 461  	26.9795   	84.548645   
 462  	27.0381   	82.995911   
 463  	27.0968   	81.442200   
 464  	27.1554   	79.858704   
 465  	27.2141   	78.312805   
 466  	27.2727   	76.755180   
 467  	27.3314   	75.321594   
 468  	27.3900   	73.899231   
 469  	27.4487   	72.497131   
 470  	27.5073   	71.167542   
 471  	27.5660   	69.725525   
 472  	27.6246   	68.263847   
 473  	27.6833   	66.747742   
 474  	27.7419   	65.196831   
 475  	27.8006   	63.450989   
 476  	27.8592   	61.517147   
 477  	27.9179   	59.542294   
 478  	27.9765   	57.505676   
 479  	28.0352   	55.517269   
 480  	28.0938   	53.759701   
 481  	28.1525   	51.849422   
 482  	28.2111   	49.884583   
 483  	28.2698   	47.890686   
 484  	28.3284   	45.834900   
 485  	28.3871   	43.651180   
 486  	28.4457   	41.519104   
 487  	28.5044   	39.206726   
 488  	28.5630   	37.227840   
 489  	28.6217   	35.135071   
 490  	28.6804   	32.939514   
 491  	28.7390   	31.133667   
 492  	28.7977   	29.551878   
 493  	28.8563   	28.060484   
 494  	28.9150   	26.669556   
 495  	28.9736   	25.386475   
 496  	29.0323   	24.026489   
 497  	29.0909   	22.766417   
 498  	29.1496   	21.510864   
 499  	29.2082   	20.245726   
 500  	29.2669   	19.105833   
 501  	29.3255   	17.944641   
 502  	29.3842   	16.890076   
 503  	29.4428   	15.780518   
 504  	29.5015   	14.619262   
 505  	29.5601   	13.550109   
 506  	29.6188   	12.418639   
 507  	29.6774   	11.350647   
 508  	29.7361   	10.158507   
 509  	29.7947   	8.902404    
 510  	29.8534   	7.676025    
 511  	29.9120   	6.304260    
 512  	29.9707   	5.072815    
 513  	30.0293   	3.807129    
 514  	30.0880   	2.470703    
 515  	30.1466   	1.226379    
 516  	30.2053   	0.016846    
 517  	30.2639   	-1.125854   
 518  	30.3226   	-2.420715   
 519  	30.3812   	-3.516235   
 520  	30.4399   	-4.677490   
 521  	30.4985   	-5.607910   
 522  	30.5572   	-6.539489   
 523  	30.6158   	-7.378967   
 524  	30.6745   	-8.105591   
 525  	30.7331   	-8.613220   
 526  	30.7918   	-9.147765   
 527  	30.8504   	-9.472900   
 528  	30.9091   	-9.780578   
 529  	30.9677   	-10.061951  
 530  	31.0264   	-10.321899  
 531  	31.0850   	-10.682434  
 532  	31.1437   	-11.071533  
 533  	31.2023   	-11.448303  
 534  	31.2610   	-11.852600  
 535  	31.3196   	-12.462462  
 536  	31.3783   	-12.991394  
 537  	31.4370   	-13.518126  
 538  	31.4956   	-14.025695  
 539  	31.5543   	-14.647887  
 540  	31.6129   	-15.131347  
 541  	31.6716   	-15.605834  
 542  	31.7302   	-15.964110  
 543  	31.7889   	-16.215637  
 544  	31.8475   	-16.534607  
 545  	31.9062   	-16.836731  
 546  	31.9648   	-17.015257  
 547  	32.0235   	-17.054016  
 548  	32.0821   	-17.179810  
 549  	32.1408   	-17.305603  
 550  	32.1994   	-17.478516  
 551  	32.2581   	-17.610474  
 552  	32.3167   	-17.731750  
 553  	32.3754   	-17.887878  
 554  	32.4340   	-17.912598  
 555  	32.4927   	-17.963684  
 556  	32.5513   	-18.062500  
 557  	32.6100   	-18.169189  
 558  	32.6686   	-18.182678  
 559  	32.7273   	-18.205139  
 560  	32.7859   	-18.315735  
 561  	32.8446   	-18.406189  
 562  	32.9032   	-18.468506  
 563  	32.9619   	-18.570129  
 564  	33.0205   	-18.618956  
 565  	33.0792   	-18.700989  
 566  	33.1378   	-18.767759  
 567  	33.1965   	-18.795288  
 568  	33.2551   	-18.850889  
 569  	33.3138   	-18.978333  
 570  	33.3724   	-19.005859  
 571  	33.4311   	-19.127747  
 572  	33.4897   	-19.110291  
 573  	33.5484   	-19.235535  
 574  	33.6070   	-19.206360  
 575  	33.6657   	-19.330992  
 576  	33.7243   	-19.382629  
 577  	33.7830   	-19.373657  
 578  	33.8416   	-19.399475  
 579  	33.9003   	-19.383240  
 580  	33.9589   	-19.433777  
 581  	34.0176   	-19.457886  
 582  	34.0762   	-19.423645  
 583  	34.1349   	-19.373657  
 584  	34.1935   	-19.366941  
 585  	34.2522   	-19.401182  
 586  	34.3109   	-19.442198  
 587  	34.3695   	-19.493835  
 588  	34.4282   	-19.441040  
 589  	34.4868   	-19.423096  
 590  	34.5455   	-19.465759  
 591  	34.6041   	-19.346130  
 592  	34.6628   	-19.365784  
 593  	34.7214   	-19.506163  
 594  	34.7801   	-19.433777  
 595  	34.8387   	-19.470825  
 596  	34.8974   	-19.449463  
 597  	34.9560   	-19.341675  
 598  	35.0147   	-19.258545  
 599  	35.0733   	-19.118713  
 600  	35.1320   	-18.907593  
 601  	35.1906   	-18.716125  
 602  	35.2493   	-18.154600  
 603  	35.3079   	-17.593628  
 604  	35.3666   	-16.838377  
 605  	35.4252   	-16.046082  
 606  	35.4839   	-15.307677  
 607  	35.5425   	-14.415954  
 608  	35.6012   	-11.634766  
 609  	35.6598   	-0.492432   
 610  	35.7185   	6.440674    
 611  	35.7771   	9.741881    
 612  	35.8358   	10.049622   
 613  	35.8944   	9.189880    
 614  	35.9531   	7.388000    
 615  	36.0117   	5.564697    
 616  	36.0704   	3.603882    
 617  	36.1290   	1.452698    
 618  	36.1877   	-0.551941   
 619  	36.2463   	-2.401611   
 620  	36.3050   	-4.123230   
 621  	36.3636   	-5.934143   
 622  	36.4223   	-7.369445   
 623  	36.4809   	-8.619933   
 624  	36.5396   	-9.812073   
 625  	36.5982   	-10.735779  
 626  	36.6569   	-11.497741  
 627  	36.7155   	-12.205811  
 628  	36.7742   	-12.857726  
 629  	36.8328   	-13.410277  
 630  	36.8915   	-13.994262  
 631  	36.9501   	-14.326720  
 632  	37.0088   	-14.697326  
 633  	37.0674   	-15.084167  
 634  	37.1261   	-15.268371  
 635  	37.1848   	-15.461547  
 636  	37.2434   	-15.645691  
 637  	37.3021   	-15.829345  
 638  	37.3607   	-15.968566  
 639  	37.4194   	-16.106140  
 640  	37.4780   	-16.188719  
 641  	37.5367   	-16.347595  
 642  	37.5953   	-16.500916  
 643  	37.6540   	-16.679504  
 644  	37.7126   	-16.859192  
