
      	X(nS)     	Ch1(mV)      


 1    	0.0000    	-20.719664  
 2    	0.0587    	-20.647215  
 3    	0.1173    	-20.521973  
 4    	0.1760    	-20.544983  
 5    	0.2346    	-20.539976  
 6    	0.2933    	-20.504026  
 7    	0.3519    	-20.554016  
 8    	0.4106    	-20.472593  
 9    	0.4692    	-20.474792  
 10   	0.5279    	-20.478760  
 11   	0.5865    	-20.478760  
 12   	0.6452    	-20.473145  
 13   	0.7038    	-20.571959  
 14   	0.7625    	-20.525940  
 15   	0.8211    	-20.530943  
 16   	0.8798    	-20.474792  
 17   	0.9384    	-20.530394  
 18   	0.9971    	-20.387756  
 19   	1.0557    	-20.359131  
 20   	1.1144    	-20.414734  
 21   	1.1730    	-20.359680  
 22   	1.2317    	-20.328796  
 23   	1.2903    	-20.395630  
 24   	1.3490    	-20.439453  
 25   	1.4076    	-20.415831  
 26   	1.4663    	-20.465820  
 27   	1.5249    	-20.400146  
 28   	1.5836    	-20.357481  
 29   	1.6422    	-20.335571  
 30   	1.7009    	-20.295105  
 31   	1.7595    	-20.291748  
 32   	1.8182    	-20.296265  
 33   	1.8768    	-20.228333  
 34   	1.9355    	-20.276609  
 35   	1.9941    	-20.258057  
 36   	2.0528    	-20.190125  
 37   	2.1114    	-20.182800  
 38   	2.1701    	-20.210876  
 39   	2.2287    	-20.266479  
 40   	2.2874    	-20.301880  
 41   	2.3460    	-20.349060  
 42   	2.4047    	-20.290649  
 43   	2.4633    	-20.256407  
 44   	2.5220    	-20.307495  
 45   	2.5806    	-20.222717  
 46   	2.6393    	-20.285032  
 47   	2.6979    	-20.322632  
 48   	2.7566    	-20.386656  
 49   	2.8152    	-20.362488  
 50   	2.8739    	-20.354065  
 51   	2.9326    	-20.304138  
 52   	2.9912    	-20.320982  
 53   	3.0499    	-20.388914  
 54   	3.1085    	-20.397337  
 55   	3.1672    	-20.313658  
 56   	3.2258    	-20.266479  
 57   	3.2845    	-20.290098  
 58   	3.3431    	-20.298523  
 59   	3.4018    	-20.282225  
 60   	3.4604    	-20.181152  
 61   	3.5191    	-20.291199  
 62   	3.5777    	-20.281675  
 63   	3.6364    	-20.288940  
 64   	3.6950    	-20.291199  
 65   	3.7537    	-20.215393  
 66   	3.8123    	-20.223267  
 67   	3.8710    	-20.231689  
 68   	3.9296    	-20.224365  
 69   	3.9883    	-20.116028  
 70   	4.0469    	-19.963806  
 71   	4.1056    	-19.959900  
 72   	4.1642    	-19.805479  
 73   	4.2229    	-19.765076  
 74   	4.2815    	-19.677429  
 75   	4.3402    	-19.749329  
 76   	4.3988    	-19.827393  
 77   	4.4575    	-19.831297  
 78   	4.5161    	-19.850403  
 79   	4.5748    	-19.786377  
 80   	4.6334    	-19.694275  
 81   	4.6921    	-19.725769  
 82   	4.7507    	-19.706665  
 83   	4.8094    	-19.639282  
 84   	4.8680    	-19.507324  
 85   	4.9267    	-19.438231  
 86   	4.9853    	-19.391663  
 87   	5.0440    	-19.304016  
 88   	5.1026    	-19.238892  
 89   	5.1613    	-19.145689  
 90   	5.2199    	-18.871643  
 91   	5.2786    	-18.626829  
 92   	5.3372    	-18.237730  
 93   	5.3959    	-17.611631  
 94   	5.4545    	-16.997314  
 95   	5.5132    	-15.996093  
 96   	5.5718    	-14.449097  
 97   	5.6305    	-12.500610  
 98   	5.6891    	-10.810974  
 99   	5.7478    	-9.685120   
 100  	5.8065    	-8.953490   
 101  	5.8651    	-8.037659   
 102  	5.9238    	-5.440612   
 103  	5.9824    	13.085753   
 104  	6.0411    	39.486877   
 105  	6.0997    	58.464172   
 106  	6.1584    	72.895317   
 107  	6.2170    	83.377739   
 108  	6.2757    	90.826469   
 109  	6.3343    	96.814507   
 110  	6.3930    	100.900688  
 111  	6.4516    	103.837456  
 112  	6.5103    	106.519829  
 113  	6.5689    	108.568901  
 114  	6.6276    	110.405579  
 115  	6.6862    	111.439995  
 116  	6.7449    	112.532646  
 117  	6.8035    	113.247498  
 118  	6.8622    	113.902771  
 119  	6.9208    	114.496887  
 120  	6.9795    	115.038757  
 121  	7.0381    	115.546448  
 122  	7.0968    	115.907410  
 123  	7.1554    	116.139954  
 124  	7.2141    	116.439758  
 125  	7.2727    	116.882874  
 126  	7.3314    	117.335999  
 127  	7.3900    	117.825623  
 128  	7.4487    	118.457825  
 129  	7.5073    	118.829643  
 130  	7.5660    	118.968323  
 131  	7.6246    	119.041809  
 132  	7.6833    	119.173882  
 133  	7.7419    	119.588188  
 134  	7.8006    	119.741508  
 135  	7.8592    	119.951469  
 136  	7.9179    	120.098076  
 137  	7.9765    	120.137383  
 138  	8.0352    	120.100883  
 139  	8.0938    	120.090141  
 140  	8.1525    	120.136292  
 141  	8.2111    	120.157036  
 142  	8.2698    	120.364319  
 143  	8.3284    	120.518127  
 144  	8.3871    	120.670227  
 145  	8.4457    	120.801689  
 146  	8.5044    	120.838188  
 147  	8.5630    	120.700012  
 148  	8.6217    	120.550110  
 149  	8.6804    	120.337212  
 150  	8.7390    	120.252502  
 151  	8.7977    	120.092461  
 152  	8.8563    	120.155945  
 153  	8.9150    	120.155945  
 154  	8.9736    	120.136772  
 155  	9.0323    	120.106010  
 156  	9.0909    	120.300232  
 157  	9.1496    	120.353569  
 158  	9.2082    	120.390068  
 159  	9.2669    	120.501274  
 160  	9.3255    	120.645073  
 161  	9.3842    	120.895439  
 162  	9.4428    	120.950981  
 163  	9.5015    	121.029602  
 164  	9.5601    	120.958916  
 165  	9.6188    	120.965141  
 166  	9.6774    	120.976860  
 167  	9.7361    	120.992004  
 168  	9.7947    	121.048759  
 169  	9.8534    	121.126762  
 170  	9.9120    	121.262146  
 171  	9.9707    	121.273369  
 172  	10.0293   	121.422173  
 173  	10.0880   	121.565361  
 174  	10.1466   	121.672050  
 175  	10.2053   	121.738823  
 176  	10.2639   	121.686096  
 177  	10.3226   	121.710266  
 178  	10.3812   	121.732727  
 179  	10.4399   	121.532768  
 180  	10.4985   	121.548515  
 181  	10.5572   	121.638977  
 182  	10.6158   	121.485657  
 183  	10.6745   	121.572563  
 184  	10.7331   	121.501892  
 185  	10.7918   	121.394104  
 186  	10.8504   	121.482239  
 187  	10.9091   	121.473198  
 188  	10.9677   	121.345268  
 189  	11.0264   	121.286194  
 190  	11.0850   	121.188530  
 191  	11.1437   	121.099915  
 192  	11.2023   	120.995422  
 193  	11.2610   	121.083061  
 194  	11.3196   	121.164970  
 195  	11.3783   	121.166077  
 196  	11.4370   	121.290825  
 197  	11.4956   	121.287895  
 198  	11.5543   	121.193054  
 199  	11.6129   	121.074516  
 200  	11.6716   	120.934746  
 201  	11.7302   	120.859428  
 202  	11.7889   	120.803276  
 203  	11.8475   	120.835381  
 204  	11.9062   	120.943176  
 205  	11.9648   	120.928520  
 206  	12.0235   	120.918999  
 207  	12.0821   	120.956596  
 208  	12.1408   	120.825249  
 209  	12.1994   	120.695610  
 210  	12.2581   	120.539978  
 211  	12.3167   	120.431091  
 212  	12.3754   	120.237358  
 213  	12.4340   	120.054871  
 214  	12.4927   	119.820129  
 215  	12.5513   	119.668999  
 216  	12.6100   	119.598930  
 217  	12.6686   	119.466850  
 218  	12.7273   	119.355156  
 219  	12.7859   	119.290100  
 220  	12.8446   	119.185112  
 221  	12.9032   	119.134583  
 222  	12.9619   	118.851494  
 223  	13.0205   	118.633598  
 224  	13.0792   	118.377495  
 225  	13.1378   	118.284355  
 226  	13.1965   	118.120903  
 227  	13.2551   	117.994080  
 228  	13.3138   	117.719543  
 229  	13.3724   	117.475151  
 230  	13.4311   	117.302299  
 231  	13.4897   	117.136040  
 232  	13.5484   	117.072571  
 233  	13.6070   	117.029846  
 234  	13.6657   	116.997864  
 235  	13.7243   	116.871635  
 236  	13.7830   	116.847961  
 237  	13.8416   	116.750298  
 238  	13.9003   	116.607109  
 239  	13.9589   	116.546440  
 240  	14.0176   	116.567192  
 241  	14.0762   	116.553772  
 242  	14.1349   	116.697571  
 243  	14.1935   	116.873222  
 244  	14.2522   	116.888969  
 245  	14.3109   	117.090637  
 246  	14.3695   	117.142143  
 247  	14.4282   	117.284843  
 248  	14.4868   	117.203918  
 249  	14.5455   	117.090637  
 250  	14.6041   	117.016411  
 251  	14.6628   	117.046684  
 252  	14.7214   	116.939995  
 253  	14.7801   	116.899101  
 254  	14.8387   	116.866028  
 255  	14.8974   	116.871025  
 256  	14.9560   	116.941216  
 257  	15.0147   	117.100159  
 258  	15.0733   	117.250053  
 259  	15.1320   	117.408379  
 260  	15.1906   	117.450493  
 261  	15.2493   	117.458923  
 262  	15.3079   	117.444878  
 263  	15.3666   	117.356133  
 264  	15.4252   	117.338196  
 265  	15.4839   	117.245537  
 266  	15.5425   	117.242729  
 267  	15.6012   	117.390434  
 268  	15.6598   	117.317932  
 269  	15.7185   	117.257378  
 270  	15.7771   	117.129326  
 271  	15.8358   	116.995171  
 272  	15.8944   	116.890076  
 273  	15.9531   	116.885551  
 274  	16.0117   	117.020325  
 275  	16.0704   	117.007996  
 276  	16.1290   	116.928276  
 277  	16.1877   	116.775566  
 278  	16.2463   	116.704765  
 279  	16.3050   	116.381401  
 280  	16.3636   	116.018616  
 281  	16.4223   	115.582825  
 282  	16.4809   	115.213432  
 283  	16.5396   	114.636772  
 284  	16.5982   	114.121147  
 285  	16.6569   	113.390190  
 286  	16.7155   	112.550591  
 287  	16.7742   	111.738701  
 288  	16.8328   	110.775085  
 289  	16.8915   	109.875542  
 290  	16.9501   	108.951843  
 291  	17.0088   	107.946716  
 292  	17.0674   	107.010063  
 293  	17.1261   	105.934143  
 294  	17.1848   	104.862846  
 295  	17.2434   	103.689758  
 296  	17.3021   	102.489311  
 297  	17.3607   	101.460510  
 298  	17.4194   	100.531311  
 299  	17.4780   	99.672180   
 300  	17.5367   	98.736633   
 301  	17.5953   	97.901665   
 302  	17.6540   	96.844292   
 303  	17.7126   	95.854301   
 304  	17.7713   	94.677917   
 305  	17.8299   	93.327454   
 306  	17.8886   	92.004448   
 307  	17.9472   	90.514214   
 308  	18.0059   	89.005432   
 309  	18.0645   	87.367493   
 310  	18.1232   	85.759827   
 311  	18.1818   	84.243095   
 312  	18.2405   	82.620911   
 313  	18.2991   	81.000916   
 314  	18.3578   	79.266899   
 315  	18.4164   	77.563782   
 316  	18.4751   	75.945496   
 317  	18.5337   	74.500061   
 318  	18.5924   	72.983948   
 319  	18.6510   	71.615051   
 320  	18.7097   	70.279114   
 321  	18.7683   	68.883240   
 322  	18.8270   	67.456360   
 323  	18.8856   	66.011040   
 324  	18.9443   	64.396667   
 325  	19.0029   	62.647522   
 326  	19.0616   	60.773132   
 327  	19.1202   	58.772396   
 328  	19.1789   	56.662781   
 329  	19.2375   	54.479065   
 330  	19.2962   	52.372128   
 331  	19.3548   	50.208069   
 332  	19.4135   	48.053524   
 333  	19.4721   	45.845520   
 334  	19.5308   	43.571350   
 335  	19.5894   	41.398254   
 336  	19.6481   	38.957943   
 337  	19.7067   	36.691711   
 338  	19.7654   	34.447815   
 339  	19.8240   	32.012447   
 340  	19.8827   	30.137512   
 341  	19.9413   	28.347961   
 342  	20.0000   	26.760557   
 343  	20.0587   	25.419067   
 344  	20.1173   	24.111265   
 345  	20.1760   	22.876463   
 346  	20.2346   	21.715269   
 347  	20.2933   	20.484375   
 348  	20.3519   	19.336609   
 349  	20.4106   	18.188904   
 350  	20.4692   	16.957457   
 351  	20.5279   	15.853516   
 352  	20.5865   	14.739990   
 353  	20.6452   	13.605713   
 354  	20.7038   	12.514709   
 355  	20.7625   	11.444397   
 356  	20.8211   	10.464538   
 357  	20.8798   	9.339844    
 358  	20.9384   	8.292603    
 359  	20.9971   	7.106628    
 360  	21.0557   	5.973511    
 361  	21.1144   	4.593262    
 362  	21.1730   	3.294495    
 363  	21.2317   	1.911987    
 364  	21.2903   	0.622742    
 365  	21.3490   	-0.578918   
 366  	21.4076   	-1.673340   
 367  	21.4663   	-3.015930   
 368  	21.5249   	-4.195679   
 369  	21.5836   	-5.415344   
 370  	21.6422   	-6.470397   
 371  	21.7009   	-7.568176   
 372  	21.7595   	-8.502014   
 373  	21.8182   	-9.449280   
 374  	21.8768   	-10.123108  
 375  	21.9355   	-10.714417  
 376  	21.9941   	-11.156921  
 377  	22.0528   	-11.508422  
 378  	22.1114   	-11.749878  
 379  	22.1701   	-11.996948  
 380  	22.2287   	-12.333862  
 381  	22.2874   	-12.556762  
 382  	22.3460   	-12.952087  
 383  	22.4047   	-13.273864  
 384  	22.4633   	-13.664672  
 385  	22.5220   	-14.152039  
 386  	22.5806   	-14.757934  
 387  	22.6393   	-15.294189  
 388  	22.6979   	-15.757996  
 389  	22.7566   	-16.217894  
 390  	22.8152   	-16.694639  
 391  	22.8739   	-17.087158  
 392  	22.9326   	-17.478516  
 393  	22.9912   	-17.818235  
 394  	23.0499   	-18.248352  
 395  	23.1085   	-18.453308  
 396  	23.1672   	-18.601563  
 397  	23.2258   	-18.729065  
 398  	23.2845   	-18.866028  
 399  	23.3431   	-18.995789  
 400  	23.4018   	-19.124939  
 401  	23.4604   	-19.214170  
 402  	23.5191   	-19.343323  
 403  	23.5777   	-19.471922  
 404  	23.6364   	-19.561218  
 405  	23.6950   	-19.667358  
 406  	23.7537   	-19.811096  
 407  	23.8123   	-19.945860  
 408  	23.8710   	-20.026182  
 409  	23.9296   	-19.929016  
 410  	23.9883   	-19.884644  
 411  	24.0469   	-19.709473  
 412  	24.1056   	-19.744812  
 413  	24.1642   	-19.895325  
 414  	24.2229   	-20.026731  
 415  	24.2815   	-20.140686  
 416  	24.3402   	-20.310850  
 417  	24.3988   	-20.452942  
 418  	24.4575   	-20.534363  
 419  	24.5161   	-20.677551  
 420  	24.5748   	-20.752745  
 421  	24.6334   	-20.847107  
 422  	24.6921   	-20.860596  
 423  	24.7507   	-21.000977  
 424  	24.8094   	-21.105408  
 425  	24.8680   	-21.182922  
 426  	24.9267   	-21.229490  
 427  	24.9853   	-21.241272  
 428  	25.0440   	-21.360901  
 429  	25.1026   	-21.401304  
 430  	25.1613   	-21.400757  
 431  	25.2199   	-21.376648  
 432  	25.2786   	-21.442869  
 433  	25.3372   	-21.473755  
 434  	25.3959   	-21.534424  
 435  	25.4545   	-21.506348  
 436  	25.5132   	-21.588316  
 437  	25.5718   	-21.564756  
 438  	25.6305   	-21.498474  
 439  	25.6891   	-21.596739  
 440  	25.7478   	-21.552366  
 441  	25.8065   	-21.538330  
 442  	25.8651   	-21.585510  
 443  	25.9238   	-21.659056  
 444  	25.9824   	-21.663574  
 445  	26.0411   	-21.534973  
 446  	26.0997   	-21.563047  
 447  	26.1584   	-21.404112  
 448  	26.2170   	-21.412537  
 449  	26.2757   	-21.292969  
 450  	26.3343   	-21.155394  
 451  	26.3930   	-20.945923  
 452  	26.4516   	-20.682005  
 453  	26.5103   	-20.213684  
 454  	26.5689   	-19.466856  
 455  	26.6276   	-18.800354  
 456  	26.6862   	-18.003538  
 457  	26.7449   	-17.049498  
 458  	26.8035   	-16.138733  
 459  	26.8622   	-12.528686  
 460  	26.9208   	0.154419    
 461  	26.9795   	7.178528    
 462  	27.0381   	10.171997   
 463  	27.0968   	9.725036    
 464  	27.1554   	8.153870    
 465  	27.2141   	5.881958    
 466  	27.2727   	3.377014    
 467  	27.3314   	0.840637    
 468  	27.3900   	-1.716003   
 469  	27.4487   	-3.904236   
 470  	27.5073   	-5.928527   
 471  	27.5660   	-7.722045   
 472  	27.6246   	-9.318480   
 473  	27.6833   	-10.724548  
 474  	27.7419   	-12.036804  
 475  	27.8006   	-13.203673  
 476  	27.8592   	-14.137450  
 477  	27.9179   	-14.867431  
 478  	27.9765   	-15.519958  
 479  	28.0352   	-16.046082  
 480  	28.0938   	-16.522276  
 481  	28.1525   	-16.902405  
 482  	28.2111   	-17.278624  
 483  	28.2698   	-17.617798  
 484  	28.3284   	-17.861511  
 485  	28.3871   	-17.966492  
 486  	28.4457   	-18.134399  
 487  	28.5044   	-18.328674  
 488  	28.5630   	-18.428040  
 489  	28.6217   	-18.530272  
 490  	28.6804   	-18.720032  
 491  	28.7390   	-18.921080  
 492  	28.7977   	-19.083923  
 493  	28.8563   	-19.292234  
 494  	28.9150   	-19.428162  
 495  	28.9736   	-19.629700  
 496  	29.0323   	-19.755493  
 497  	29.0909   	-19.856018  
 498  	29.1496   	-19.849302  
 499  	29.2082   	-20.010986  
 500  	29.2669   	-20.080627  
 501  	29.3255   	-20.242371  
 502  	29.3842   	-20.273254  
 503  	29.4428   	-20.414734  
 504  	29.5015   	-20.477051  
 505  	29.5601   	-20.561277  
 506  	29.6188   	-20.537718  
 507  	29.6774   	-20.628662  
 508  	29.7361   	-20.694395  
 509  	29.7947   	-20.758362  
 510  	29.8534   	-20.879700  
 511  	29.9120   	-20.897642  
 512  	29.9707   	-20.910582  
 513  	30.0293   	-21.061584  
 514  	30.0880   	-21.034119  
 515  	30.1466   	-21.081848  
 516  	30.2053   	-21.032959  
 517  	30.2639   	-21.011656  
 518  	30.3226   	-20.941465  
 519  	30.3812   	-20.959412  
 520  	30.4399   	-21.036926  
 521  	30.4985   	-21.103149  
 522  	30.5572   	-21.154846  
 523  	30.6158   	-21.262632  
 524  	30.6745   	-21.216614  
 525  	30.7331   	-21.295776  
 526  	30.7918   	-21.220520  
 527  	30.8504   	-21.273865  
 528  	30.9091   	-21.372129  
 529  	30.9677   	-21.369871  
 530  	31.0264   	-21.410887  
 531  	31.0850   	-21.346312  
 532  	31.1437   	-21.354736  
 533  	31.2023   	-21.423218  
 534  	31.2610   	-21.356384  
 535  	31.3196   	-21.390684  
 536  	31.3783   	-21.392334  
 537  	31.4370   	-21.397949  
 538  	31.4956   	-21.352478  
 539  	31.5543   	-21.337341  
 540  	31.6129   	-21.396301  
 541  	31.6716   	-21.432800  
 542  	31.7302   	-21.356995  
 543  	31.7889   	-21.407532  
 544  	31.8475   	-21.401917  
 545  	31.9062   	-21.482725  
 546  	31.9648   	-21.469849  
 547  	32.0235   	-21.510801  
 548  	32.0821   	-21.477110  
 549  	32.1408   	-21.480530  
 550  	32.1994   	-21.459717  
 551  	32.2581   	-21.478271  
 552  	32.3167   	-21.505188  
 553  	32.3754   	-21.487791  
 554  	32.4340   	-21.631529  
 555  	32.4927   	-21.620298  
 556  	32.5513   	-21.687683  
 557  	32.6100   	-21.814636  
 558  	32.6686   	-21.760681  
 559  	32.7273   	-21.820799  
 560  	32.7859   	-21.794373  
 561  	32.8446   	-21.750608  
 562  	32.9032   	-21.737669  
 563  	32.9619   	-21.834839  
 564  	33.0205   	-21.783142  
 565  	33.0792   	-21.748901  
 566  	33.1378   	-21.734861  
 567  	33.1965   	-21.750059  
 568  	33.2551   	-21.744993  
 569  	33.3138   	-21.764099  
 570  	33.3724   	-21.815733  
 571  	33.4311   	-21.830322  
 572  	33.4897   	-21.875244  
 573  	33.5484   	-21.897156  
 574  	33.6070   	-21.839293  
 575  	33.6657   	-21.840454  
 576  	33.7243   	-21.839905  
 577  	33.7830   	-21.838196  
 578  	33.8416   	-21.834839  
 579  	33.9003   	-21.838196  
 580  	33.9589   	-21.896605  
 581  	34.0176   	-21.875792  
 582  	34.0762   	-21.952209  
 583  	34.1349   	-21.963438  
 584  	34.1935   	-22.090881  
 585  	34.2522   	-22.041443  
 586  	34.3109   	-21.979675  
 587  	34.3695   	-21.999329  
 588  	34.4282   	-21.986450  
 589  	34.4868   	-21.960632  
 590  	34.5455   	-21.888731  
 591  	34.6041   	-21.890989  
 592  	34.6628   	-21.905579  
 593  	34.7214   	-22.020142  
 594  	34.7801   	-22.043701  
 595  	34.8387   	-21.974669  
 596  	34.8974   	-21.962278  
 597  	34.9560   	-21.922422  
 598  	35.0147   	-21.865171  
 599  	35.0733   	-21.880310  
 600  	35.1320   	-21.914549  
 601  	35.1906   	-21.875244  
 602  	35.2493   	-21.960020  
 603  	35.3079   	-21.996519  
 604  	35.3666   	-22.002745  
 605  	35.4252   	-21.993711  
 606  	35.4839   	-21.997131  
 607  	35.5425   	-22.039244  
 608  	35.6012   	-22.066160  
 609  	35.6598   	-22.043152  
 610  	35.7185   	-22.045959  
 611  	35.7771   	-22.059448  
 612  	35.8358   	-22.098755  
 613  	35.8944   	-22.111082  
 614  	35.9531   	-22.018982  
 615  	36.0117   	-21.868530  
 616  	36.0704   	-21.798340  
 617  	36.1290   	-21.791565  
 618  	36.1877   	-21.788208  
 619  	36.2463   	-21.795532  
 620  	36.3050   	-21.782042  
 621  	36.3636   	-21.799986  
 622  	36.4223   	-21.775330  
 623  	36.4809   	-21.822449  
 624  	36.5396   	-21.848875  
 625  	36.5982   	-21.775330  
 626  	36.6569   	-21.782593  
 627  	36.7155   	-21.652893  
 628  	36.7742   	-21.687134  
 629  	36.8328   	-21.709595  
 630  	36.8915   	-21.721985  
 631  	36.9501   	-21.778685  
 632  	37.0088   	-21.736572  
 633  	37.0674   	-21.731506  
 634  	37.1261   	-21.768005  
 635  	37.1848   	-21.764648  
 636  	37.2434   	-21.802794  
 637  	37.3021   	-21.849974  
 638  	37.3607   	-21.806213  
 639  	37.4194   	-21.844908  
 640  	37.4780   	-21.907288  
 641  	37.5367   	-21.939270  
 642  	37.5953   	-21.889280  
 643  	37.6540   	-21.907837  
 644  	37.7126   	-21.860106  
