
      	X(nS)     	Ch1(mV)      


 1    	0.0000    	-18.966553  
 2    	0.0489    	-18.917175  
 3    	0.0978    	-19.045166  
 4    	0.1466    	-19.027222  
 5    	0.1955    	-19.058655  
 6    	0.2444    	-19.051941  
 7    	0.2933    	-18.980042  
 8    	0.3421    	-18.858765  
 9    	0.3910    	-19.033936  
 10   	0.4399    	-19.076660  
 11   	0.4888    	-19.031738  
 12   	0.5376    	-18.986816  
 13   	0.5865    	-19.022705  
 14   	0.6354    	-19.170959  
 15   	0.6843    	-19.020508  
 16   	0.7331    	-18.980042  
 17   	0.7820    	-18.964355  
 18   	0.8309    	-19.000244  
 19   	0.8798    	-19.096863  
 20   	0.9286    	-18.887939  
 21   	0.9775    	-18.899170  
 22   	1.0264    	-18.993530  
 23   	1.0753    	-18.861023  
 24   	1.1241    	-19.022705  
 25   	1.1730    	-19.085632  
 26   	1.2219    	-19.029480  
 27   	1.2708    	-18.890198  
 28   	1.3196    	-18.800354  
 29   	1.3685    	-18.876709  
 30   	1.4174    	-18.910400  
 31   	1.4663    	-18.755432  
 32   	1.5152    	-18.899170  
 33   	1.5640    	-18.649902  
 34   	1.6129    	-18.854248  
 35   	1.6618    	-18.766663  
 36   	1.7107    	-18.867737  
 37   	1.7595    	-18.845276  
 38   	1.8084    	-18.840820  
 39   	1.8573    	-18.645386  
 40   	1.9062    	-18.629639  
 41   	1.9550    	-18.663330  
 42   	2.0039    	-18.656616  
 43   	2.0528    	-18.777893  
 44   	2.1017    	-18.845276  
 45   	2.1505    	-18.802612  
 46   	2.1994    	-18.791382  
 47   	2.2483    	-18.582520  
 48   	2.2972    	-18.780151  
 49   	2.3460    	-18.735229  
 50   	2.3949    	-18.694824  
 51   	2.4438    	-18.688049  
 52   	2.4927    	-18.730713  
 53   	2.5415    	-18.631897  
 54   	2.5904    	-18.553284  
 55   	2.6393    	-18.542053  
 56   	2.6882    	-18.589233  
 57   	2.7370    	-18.548828  
 58   	2.7859    	-18.744202  
 59   	2.8348    	-18.699280  
 60   	2.8837    	-18.937378  
 61   	2.9326    	-18.773438  
 62   	2.9814    	-18.932861  
 63   	3.0303    	-18.843018  
 64   	3.0792    	-18.896973  
 65   	3.1281    	-18.645386  
 66   	3.1769    	-18.602722  
 67   	3.2258    	-18.586975  
 68   	3.2747    	-18.530823  
 69   	3.3236    	-18.555542  
 70   	3.3724    	-18.535339  
 71   	3.4213    	-18.573486  
 72   	3.4702    	-18.649902  
 73   	3.5191    	-18.764404  
 74   	3.5679    	-18.627441  
 75   	3.6168    	-18.735229  
 76   	3.6657    	-18.622925  
 77   	3.7146    	-18.768921  
 78   	3.7634    	-18.634155  
 79   	3.8123    	-18.730713  
 80   	3.8612    	-18.777893  
 81   	3.9101    	-18.874512  
 82   	3.9589    	-18.737488  
 83   	4.0078    	-18.674561  
 84   	4.0567    	-18.656616  
 85   	4.1056    	-18.712769  
 86   	4.1544    	-18.786865  
 87   	4.2033    	-18.649902  
 88   	4.2522    	-18.681335  
 89   	4.3011    	-18.566772  
 90   	4.3500    	-18.620667  
 91   	4.3988    	-18.656616  
 92   	4.4477    	-18.438721  
 93   	4.4966    	-18.346680  
 94   	4.5455    	-18.373596  
 95   	4.5943    	-18.373596  
 96   	4.6432    	-18.312988  
 97   	4.6921    	-18.299500  
 98   	4.7410    	-18.286011  
 99   	4.7898    	-18.086121  
 100  	4.8387    	-18.081604  
 101  	4.8876    	-18.142273  
 102  	4.9365    	-18.211914  
 103  	4.9853    	-18.254578  
 104  	5.0342    	-18.128784  
 105  	5.0831    	-17.942383  
 106  	5.1320    	-18.029968  
 107  	5.1808    	-17.922119  
 108  	5.2297    	-18.119812  
 109  	5.2786    	-18.086121  
 110  	5.3275    	-18.027710  
 111  	5.3763    	-17.985046  
 112  	5.4252    	-18.020996  
 113  	5.4741    	-18.000732  
 114  	5.5230    	-18.079346  
 115  	5.5718    	-17.989502  
 116  	5.6207    	-17.886230  
 117  	5.6696    	-17.823303  
 118  	5.7185    	-17.827820  
 119  	5.7674    	-17.742432  
 120  	5.8162    	-17.751465  
 121  	5.8651    	-17.670593  
 122  	5.9140    	-17.627930  
 123  	5.9629    	-17.443726  
 124  	6.0117    	-17.389832  
 125  	6.0606    	-17.196655  
 126  	6.1095    	-17.207886  
 127  	6.1584    	-16.821533  
 128  	6.2072    	-16.374573  
 129  	6.2561    	-15.990479  
 130  	6.3050    	-15.404298  
 131  	6.3539    	-14.584473  
 132  	6.4027    	-13.443419  
 133  	6.4516    	-11.857666  
 134  	6.5005    	-9.914795   
 135  	6.5494    	-8.692932   
 136  	6.5982    	-7.650756   
 137  	6.6471    	-6.961182   
 138  	6.6960    	-6.408691   
 139  	6.7449    	-5.537170   
 140  	6.7937    	-2.893555   
 141  	6.8426    	12.090149   
 142  	6.8915    	37.729309   
 143  	6.9404    	56.513428   
 144  	6.9892    	70.569458   
 145  	7.0381    	81.265381   
 146  	7.0870    	88.931274   
 147  	7.1359    	94.905884   
 148  	7.1848    	98.627686   
 149  	7.2336    	101.534058  
 150  	7.2825    	103.923950  
 151  	7.3314    	105.572624  
 152  	7.3803    	107.281860  
 153  	7.4291    	108.577873  
 154  	7.4780    	109.846916  
 155  	7.5269    	110.990105  
 156  	7.5758    	111.668457  
 157  	7.6246    	111.733650  
 158  	7.6735    	112.144653  
 159  	7.7224    	112.483765  
 160  	7.7713    	112.786987  
 161  	7.8201    	113.195801  
 162  	7.8690    	113.386719  
 163  	7.9179    	113.676506  
 164  	7.9668    	113.957275  
 165  	8.0156    	114.204346  
 166  	8.0645    	114.321159  
 167  	8.1134    	114.491821  
 168  	8.1623    	114.848999  
 169  	8.2111    	115.421745  
 170  	8.2600    	116.016960  
 171  	8.3089    	116.311157  
 172  	8.3578    	116.724487  
 173  	8.4066    	117.047844  
 174  	8.4555    	117.137688  
 175  	8.5044    	117.171387  
 176  	8.5533    	117.292725  
 177  	8.6022    	117.710449  
 178  	8.6510    	117.726196  
 179  	8.6999    	117.977783  
 180  	8.7488    	118.103516  
 181  	8.7977    	118.204590  
 182  	8.8465    	118.267448  
 183  	8.8954    	118.321411  
 184  	8.9443    	118.213623  
 185  	8.9932    	118.188835  
 186  	9.0420    	118.397827  
 187  	9.0909    	118.586418  
 188  	9.1398    	118.748169  
 189  	9.1887    	119.055908  
 190  	9.2375    	119.123291  
 191  	9.2864    	119.253540  
 192  	9.3353    	119.462402  
 193  	9.3842    	119.516350  
 194  	9.4330    	119.352417  
 195  	9.4819    	119.177124  
 196  	9.5308    	119.105347  
 197  	9.5797    	119.064819  
 198  	9.6285    	118.948120  
 199  	9.6774    	118.692017  
 200  	9.7263    	118.761597  
 201  	9.7752    	118.635857  
 202  	9.8240    	118.644890  
 203  	9.8729    	118.750366  
 204  	9.9218    	118.617920  
 205  	9.9707    	118.669556  
 206  	10.0196   	118.739136  
 207  	10.0684   	118.799805  
 208  	10.1173   	118.997437  
 209  	10.1662   	119.253540  
 210  	10.2151   	119.451172  
 211  	10.2639   	119.577019  
 212  	10.3128   	119.691528  
 213  	10.3617   	119.893669  
 214  	10.4106   	119.938599  
 215  	10.4594   	120.035164  
 216  	10.5083   	120.044197  
 217  	10.5572   	120.104858  
 218  	10.6061   	120.230583  
 219  	10.6549   	120.257568  
 220  	10.7038   	120.235107  
 221  	10.7527   	120.437256  
 222  	10.8016   	120.381096  
 223  	10.8504   	120.515869  
 224  	10.8993   	120.540520  
 225  	10.9482   	120.715698  
 226  	10.9971   	120.881958  
 227  	11.0459   	120.859497  
 228  	11.0948   	120.834831  
 229  	11.1437   	120.756218  
 230  	11.1926   	120.711304  
 231  	11.2414   	120.632690  
 232  	11.2903   	120.634888  
 233  	11.3392   	120.569695  
 234  	11.3881   	120.401237  
 235  	11.4370   	120.740479  
 236  	11.4858   	120.610229  
 237  	11.5347   	120.524780  
 238  	11.5836   	120.558464  
 239  	11.6325   	120.405762  
 240  	11.6813   	120.367554  
 241  	11.7302   	120.360832  
 242  	11.7791   	120.212654  
 243  	11.8280   	120.129517  
 244  	11.8768   	120.183472  
 245  	11.9257   	120.093636  
 246  	11.9746   	120.017212  
 247  	12.0235   	120.102531  
 248  	12.0723   	119.920654  
 249  	12.1212   	119.949829  
 250  	12.1701   	119.954338  
 251  	12.2190   	120.015015  
 252  	12.2678   	119.911621  
 253  	12.3167   	120.095825  
 254  	12.3656   	120.129517  
 255  	12.4145   	120.080078  
 256  	12.4633   	119.940796  
 257  	12.5122   	119.738647  
 258  	12.5611   	119.597160  
 259  	12.6100   	119.489388  
 260  	12.6588   	119.653320  
 261  	12.7077   	119.563477  
 262  	12.7566   	119.619629  
 263  	12.8055   	119.725212  
 264  	12.8544   	119.848755  
 265  	12.9032   	119.810547  
 266  	12.9521   	119.736443  
 267  	13.0010   	120.039673  
 268  	13.0499   	119.846558  
 269  	13.0987   	119.884636  
 270  	13.1476   	119.660034  
 271  	13.1965   	119.545525  
 272  	13.2454   	119.502808  
 273  	13.2942   	119.527580  
 274  	13.3431   	119.448982  
 275  	13.3920   	119.444458  
 276  	13.4409   	119.293945  
 277  	13.4897   	119.001945  
 278  	13.5386   	118.864990  
 279  	13.5875   	118.918823  
 280  	13.6364   	118.790894  
 281  	13.6852   	118.748169  
 282  	13.7341   	118.532593  
 283  	13.7830   	118.330444  
 284  	13.8319   	118.161987  
 285  	13.8807   	117.928345  
 286  	13.9296   	117.687988  
 287  	13.9785   	117.400513  
 288  	14.0274   	117.238777  
 289  	14.0762   	117.020882  
 290  	14.1251   	116.807495  
 291  	14.1740   	116.827759  
 292  	14.2229   	116.621086  
 293  	14.2718   	116.311157  
 294  	14.3206   	116.259521  
 295  	14.3695   	116.317871  
 296  	14.4184   	116.099976  
 297  	14.4673   	116.279663  
 298  	14.5161   	115.994499  
 299  	14.5650   	115.940552  
 300  	14.6139   	115.861938  
 301  	14.6628   	115.819206  
 302  	14.7116   	115.778801  
 303  	14.7605   	115.801270  
 304  	14.8094   	115.626099  
 305  	14.8583   	115.742920  
 306  	14.9071   	115.680061  
 307  	14.9560   	115.441887  
 308  	15.0049   	115.500359  
 309  	15.0538   	115.630608  
 310  	15.1026   	115.749626  
 311  	15.1515   	115.657585  
 312  	15.2004   	115.635132  
 313  	15.2493   	115.700188  
 314  	15.2981   	115.850708  
 315  	15.3470   	115.841675  
 316  	15.3959   	115.920288  
 317  	15.4448   	115.900146  
 318  	15.4936   	115.891113  
 319  	15.5425   	115.958488  
 320  	15.5914   	115.918083  
 321  	15.6403   	115.855225  
 322  	15.6892   	115.870972  
 323  	15.7380   	115.821533  
 324  	15.7869   	115.848518  
 325  	15.8358   	115.929321  
 326  	15.8847   	115.857414  
 327  	15.9335   	115.747429  
 328  	15.9824   	116.135979  
 329  	16.0313   	116.064087  
 330  	16.0802   	116.106819  
 331  	16.1290   	116.252800  
 332  	16.1779   	116.203362  
 333  	16.2268   	116.176384  
 334  	16.2757   	116.012451  
 335  	16.3245   	116.041626  
 336  	16.3734   	115.985466  
 337  	16.4223   	115.900146  
 338  	16.4712   	115.900146  
 339  	16.5200   	116.010132  
 340  	16.5689   	116.093262  
 341  	16.6178   	116.075310  
 342  	16.6667   	116.086540  
 343  	16.7155   	115.799065  
 344  	16.7644   	115.563232  
 345  	16.8133   	115.513794  
 346  	16.8622   	115.421745  
 347  	16.9110   	115.379028  
 348  	16.9599   	115.194817  
 349  	17.0088   	115.410515  
 350  	17.0577   	115.286987  
 351  	17.1066   	115.244255  
 352  	17.1554   	114.963501  
 353  	17.2043   	114.682739  
 354  	17.2532   	114.375000  
 355  	17.3021   	114.130241  
 356  	17.3509   	113.802246  
 357  	17.3998   	113.344116  
 358  	17.4487   	112.870117  
 359  	17.4976   	112.483765  
 360  	17.5464   	111.825684  
 361  	17.5953   	111.044067  
 362  	17.6442   	110.347778  
 363  	17.6931   	109.759270  
 364  	17.7419   	108.908081  
 365  	17.7908   	108.209473  
 366  	17.8397   	107.573853  
 367  	17.8886   	106.859619  
 368  	17.9374   	105.882576  
 369  	17.9863   	104.934692  
 370  	18.0352   	104.031738  
 371  	18.0841   	103.128784  
 372  	18.1329   	102.156250  
 373  	18.1818   	101.123055  
 374  	18.2307   	100.157227  
 375  	18.2796   	99.330688   
 376  	18.3284   	98.679321   
 377  	18.3773   	98.106567   
 378  	18.4262   	97.349609   
 379  	18.4751   	96.857788   
 380  	18.5239   	95.984009   
 381  	18.5728   	95.251831   
 382  	18.6217   	94.162476   
 383  	18.6706   	93.192139   
 384  	18.7195   	92.026367   
 385  	18.7683   	90.898804   
 386  	18.8172   	89.703979   
 387  	18.8661   	88.560669   
 388  	18.9150   	87.417358   
 389  	18.9638   	86.067505   
 390  	19.0127   	85.101685   
 391  	19.0616   	83.920288   
 392  	19.1105   	82.709595   
 393  	19.1593   	81.323730   
 394  	19.2082   	79.991821   
 395  	19.2571   	78.828369   
 396  	19.3060   	77.509888   
 397  	19.3548   	76.016235   
 398  	19.4037   	74.837036   
 399  	19.4526   	73.646606   
 400  	19.5015   	72.496582   
 401  	19.5503   	71.535278   
 402  	19.5992   	70.484131   
 403  	19.6481   	69.309448   
 404  	19.6970   	68.276245   
 405  	19.7458   	67.020630   
 406  	19.7947   	65.774048   
 407  	19.8436   	64.509521   
 408  	19.8925   	63.218018   
 409  	19.9413   	61.623287   
 410  	19.9902   	60.120602   
 411  	20.0391   	58.685425   
 412  	20.0880   	56.836792   
 413  	20.1369   	55.163448   
 414  	20.1857   	53.344116   
 415  	20.2346   	51.724731   
 416  	20.2835   	50.006470   
 417  	20.3324   	48.189331   
 418  	20.3812   	46.540771   
 419  	20.4301   	44.824707   
 420  	20.4790   	42.969482   
 421  	20.5279   	40.824463   
 422  	20.5767   	38.769287   
 423  	20.6256   	37.001587   
 424  	20.6745   	35.321533   
 425  	20.7234   	33.854797   
 426  	20.7722   	32.358887   
 427  	20.8211   	30.633911   
 428  	20.8700   	29.317688   
 429  	20.9189   	27.992491   
 430  	20.9677   	26.683043   
 431  	21.0166   	25.753172   
 432  	21.0655   	24.484131   
 433  	21.1144   	23.363281   
 434  	21.1632   	22.332336   
 435  	21.2121   	21.357544   
 436  	21.2610   	20.546692   
 437  	21.3099   	19.354004   
 438  	21.3587   	18.392700   
 439  	21.4076   	17.411133   
 440  	21.4565   	16.198242   
 441  	21.5054   	15.324524   
 442  	21.5543   	14.637207   
 443  	21.6031   	13.826416   
 444  	21.6520   	13.136841   
 445  	21.7009   	12.350708   
 446  	21.7498   	11.614014   
 447  	21.7986   	10.717773   
 448  	21.8475   	9.891235    
 449  	21.8964   	8.911926    
 450  	21.9453   	8.009033    
 451  	21.9941   	7.009521    
 452  	22.0430   	5.783142    
 453  	22.0919   	4.729736    
 454  	22.1408   	3.528076    
 455  	22.1896   	2.355591    
 456  	22.2385   	1.452637    
 457  	22.2874   	0.277954    
 458  	22.3363   	-0.858581   
 459  	22.3851   	-1.947937   
 460  	22.4340   	-3.095703   
 461  	22.4829   	-4.068237   
 462  	22.5318   	-5.137390   
 463  	22.5806   	-6.067261   
 464  	22.6295   	-6.790527   
 465  	22.6784   	-7.576660   
 466  	22.7273   	-8.185303   
 467  	22.7761   	-8.802979   
 468  	22.8250   	-9.470093   
 469  	22.8739   	-9.802490   
 470  	22.9228   	-10.033875  
 471  	22.9717   	-10.355042  
 472  	23.0205   	-10.503296  
 473  	23.0694   	-10.669495  
 474  	23.1183   	-10.752625  
 475  	23.1672   	-11.004150  
 476  	23.2160   	-11.168152  
 477  	23.2649   	-11.588135  
 478  	23.3138   	-11.882385  
 479  	23.3627   	-12.196838  
 480  	23.4115   	-12.765137  
 481  	23.4604   	-13.182861  
 482  	23.5093   	-13.677001  
 483  	23.5582   	-14.137451  
 484  	23.6070   	-14.490112  
 485  	23.6559   	-14.894409  
 486  	23.7048   	-15.357116  
 487  	23.7537   	-15.588441  
 488  	23.8025   	-15.923095  
 489  	23.8514   	-16.111816  
 490  	23.9003   	-16.446472  
 491  	23.9492   	-16.644104  
 492  	23.9980   	-16.967529  
 493  	24.0469   	-17.228088  
 494  	24.0958   	-17.421265  
 495  	24.1447   	-17.383057  
 496  	24.1935   	-17.567261  
 497  	24.2424   	-17.630127  
 498  	24.2913   	-17.677307  
 499  	24.3402   	-17.778381  
 500  	24.3891   	-17.796387  
 501  	24.4379   	-17.809814  
 502  	24.4868   	-18.054686  
 503  	24.5357   	-18.126526  
 504  	24.5846   	-18.140015  
 505  	24.6334   	-18.227600  
 506  	24.6823   	-18.438721  
 507  	24.7312   	-18.499390  
 508  	24.7801   	-18.351135  
 509  	24.8289   	-18.416260  
 510  	24.8778   	-18.254578  
 511  	24.9267   	-18.411804  
 512  	24.9756   	-18.728516  
 513  	25.0244   	-18.521851  
 514  	25.0733   	-18.766663  
 515  	25.1222   	-19.054199  
 516  	25.1711   	-19.202393  
 517  	25.2199   	-18.872253  
 518  	25.2688   	-18.622925  
 519  	25.3177   	-18.836304  
 520  	25.3666   	-18.753174  
 521  	25.4154   	-18.867737  
 522  	25.4643   	-18.726257  
 523  	25.5132   	-18.849792  
 524  	25.5621   	-19.123779  
 525  	25.6109   	-19.000244  
 526  	25.6598   	-18.966553  
 527  	25.7087   	-19.274292  
 528  	25.7576   	-19.281006  
 529  	25.8065   	-19.251831  
 530  	25.8553   	-19.191162  
 531  	25.9042   	-19.447266  
 532  	25.9531   	-19.496643  
 533  	26.0020   	-19.348389  
 534  	26.0508   	-19.283264  
 535  	26.0997   	-19.489929  
 536  	26.1486   	-19.337158  
 537  	26.1975   	-19.240601  
 538  	26.2463   	-19.379881  
 539  	26.2952   	-19.532593  
 540  	26.3441   	-19.211426  
 541  	26.3930   	-19.379881  
 542  	26.4418   	-19.579773  
 543  	26.4907   	-19.514648  
 544  	26.5396   	-19.355164  
 545  	26.5885   	-19.397827  
 546  	26.6373   	-19.561768  
 547  	26.6862   	-19.305725  
 548  	26.7351   	-19.541565  
 549  	26.7840   	-19.532593  
 550  	26.8328   	-19.386597  
 551  	26.8817   	-19.512390  
 552  	26.9306   	-19.611206  
 553  	26.9795   	-19.525879  
 554  	27.0283   	-19.579773  
 555  	27.0772   	-19.604492  
 556  	27.1261   	-19.478699  
 557  	27.1750   	-19.184446  
 558  	27.2239   	-19.164246  
 559  	27.2727   	-18.955322  
 560  	27.3216   	-18.739746  
 561  	27.3705   	-18.380371  
 562  	27.4194   	-17.931152  
 563  	27.4682   	-16.918152  
 564  	27.5171   	-16.251038  
 565  	27.5660   	-15.649109  
 566  	27.6149   	-15.011230  
 567  	27.6637   	-14.429442  
 568  	27.7126   	-13.443419  
 569  	27.7615   	-6.188538   
 570  	27.8104   	4.675781    
 571  	27.8592   	10.960388   
 572  	27.9081   	13.307556   
 573  	27.9570   	13.222169   
 574  	28.0059   	11.622986   
 575  	28.0547   	9.466736    
 576  	28.1036   	7.155518    
 577  	28.1525   	4.851013    
 578  	28.2014   	2.384766    
 579  	28.2502   	0.145447    
 580  	28.2991   	-2.057983   
 581  	28.3480   	-3.852600   
 582  	28.3969   	-5.299072   
 583  	28.4457   	-6.794982   
 584  	28.4946   	-7.987671   
 585  	28.5435   	-9.294922   
 586  	28.5924   	-10.507813  
 587  	28.6413   	-11.403992  
 588  	28.6901   	-12.275452  
 589  	28.7390   	-13.070556  
 590  	28.7879   	-13.378296  
 591  	28.8368   	-13.899414  
 592  	28.8856   	-14.267762  
 593  	28.9345   	-14.579956  
 594  	28.9834   	-14.894409  
 595  	29.0323   	-15.065125  
 596  	29.0811   	-15.570495  
 597  	29.1300   	-15.840027  
 598  	29.1789   	-15.954589  
 599  	29.2278   	-16.109558  
 600  	29.2766   	-16.379089  
 601  	29.3255   	-16.464417  
 602  	29.3744   	-16.760925  
 603  	29.4233   	-16.810303  
 604  	29.4721   	-16.855225  
 605  	29.5210   	-16.936096  
 606  	29.5699   	-17.147217  
 607  	29.6188   	-17.259521  
 608  	29.6676   	-17.286499  
 609  	29.7165   	-17.425781  
 610  	29.7654   	-17.600952  
 611  	29.8143   	-17.627930  
 612  	29.8631   	-17.636902  
 613  	29.9120   	-17.753662  
 614  	29.9609   	-17.852539  
 615  	30.0098   	-18.059143  
 616  	30.0587   	-18.083862  
 617  	30.1075   	-18.256836  
 618  	30.1564   	-18.290527  
 619  	30.2053   	-18.265808  
 620  	30.2542   	-18.326416  
 621  	30.3030   	-18.362366  
 622  	30.3519   	-18.227600  
 623  	30.4008   	-18.452209  
 624  	30.4497   	-18.481445  
 625  	30.4985   	-18.566772  
 626  	30.5474   	-18.470215  
 627  	30.5963   	-18.492676  
 628  	30.6452   	-18.571289  
 629  	30.6940   	-18.703796  
 630  	30.7429   	-18.688049  
 631  	30.7918   	-18.685791  
 632  	30.8407   	-18.782410  
 633  	30.8895   	-18.737488  
 634  	30.9384   	-18.701538  
 635  	30.9873   	-18.896973  
 636  	31.0362   	-18.735229  
 637  	31.0850   	-18.703796  
 638  	31.1339   	-18.602722  
 639  	31.1828   	-18.555542  
 640  	31.2317   	-18.393799  
 641  	31.2805   	-18.674561  
 642  	31.3294   	-18.717285  
 643  	31.3783   	-18.921631  
 644  	31.4272   	-18.849792  
