
      	X(nS)     	Ch1(mV)      


 1    	0.0000    	-37.004944  
 2    	0.0489    	-37.099304  
 3    	0.0978    	-37.175659  
 4    	0.1466    	-37.182373  
 5    	0.1955    	-37.312683  
 6    	0.2444    	-37.409241  
 7    	0.2933    	-37.535034  
 8    	0.3421    	-37.570984  
 9    	0.3910    	-37.460938  
 10   	0.4399    	-37.503601  
 11   	0.4888    	-37.445190  
 12   	0.5376    	-37.476624  
 13   	0.5865    	-37.454163  
 14   	0.6354    	-37.456421  
 15   	0.6843    	-37.442932  
 16   	0.7331    	-37.400269  
 17   	0.7820    	-37.411499  
 18   	0.8309    	-37.429443  
 19   	0.8798    	-37.451904  
 20   	0.9286    	-37.476624  
 21   	0.9775    	-37.460938  
 22   	1.0264    	-37.402527  
 23   	1.0753    	-37.463135  
 24   	1.1241    	-37.517090  
 25   	1.1730    	-37.406982  
 26   	1.2219    	-37.503601  
 27   	1.2708    	-37.472168  
 28   	1.3196    	-37.357605  
 29   	1.3685    	-37.539551  
 30   	1.4174    	-37.532776  
 31   	1.4663    	-37.368835  
 32   	1.5152    	-37.548523  
 33   	1.5640    	-37.292480  
 34   	1.6129    	-37.294678  
 35   	1.6618    	-37.229553  
 36   	1.7107    	-37.247559  
 37   	1.7595    	-37.200378  
 38   	1.8084    	-37.330627  
 39   	1.8573    	-37.225098  
 40   	1.9062    	-37.276733  
 41   	1.9550    	-37.299194  
 42   	2.0039    	-37.162170  
 43   	2.0528    	-37.141968  
 44   	2.1017    	-37.373291  
 45   	2.1505    	-37.330627  
 46   	2.1994    	-37.252014  
 47   	2.2483    	-37.204834  
 48   	2.2972    	-37.256531  
 49   	2.3460    	-37.310425  
 50   	2.3949    	-37.406982  
 51   	2.4438    	-37.429443  
 52   	2.4927    	-37.377808  
 53   	2.5415    	-37.393555  
 54   	2.5904    	-37.283447  
 55   	2.6393    	-37.296936  
 56   	2.6882    	-37.162170  
 57   	2.7370    	-37.256531  
 58   	2.7859    	-37.144226  
 59   	2.8348    	-37.225098  
 60   	2.8837    	-37.220581  
 61   	2.9326    	-37.353088  
 62   	2.9814    	-37.076843  
 63   	3.0303    	-37.207092  
 64   	3.0792    	-37.141968  
 65   	3.1281    	-37.097046  
 66   	3.1769    	-37.009460  
 67   	3.2258    	-37.141968  
 68   	3.2747    	-37.231812  
 69   	3.3236    	-37.274475  
 70   	3.3724    	-37.256531  
 71   	3.4213    	-37.411499  
 72   	3.4702    	-37.332886  
 73   	3.5191    	-37.191406  
 74   	3.5679    	-37.213867  
 75   	3.6168    	-37.207092  
 76   	3.6657    	-37.220581  
 77   	3.7146    	-37.081299  
 78   	3.7634    	-37.180176  
 79   	3.8123    	-37.227295  
 80   	3.8612    	-37.314941  
 81   	3.9101    	-37.472168  
 82   	3.9589    	-37.562012  
 83   	4.0078    	-37.530518  
 84   	4.0567    	-37.348633  
 85   	4.1056    	-37.195862  
 86   	4.1544    	-37.097046  
 87   	4.2033    	-37.175659  
 88   	4.2522    	-37.110535  
 89   	4.3011    	-37.074585  
 90   	4.3500    	-37.043152  
 91   	4.3988    	-36.957764  
 92   	4.4477    	-37.141968  
 93   	4.4966    	-37.177917  
 94   	4.5455    	-37.085815  
 95   	4.5943    	-37.045410  
 96   	4.6432    	-37.011719  
 97   	4.6921    	-36.960022  
 98   	4.7410    	-36.915100  
 99   	4.7898    	-36.892639  
 100  	4.8387    	-36.814026  
 101  	4.8876    	-36.818542  
 102  	4.9365    	-36.764648  
 103  	4.9853    	-36.712952  
 104  	5.0342    	-36.706238  
 105  	5.0831    	-36.652344  
 106  	5.1320    	-36.620850  
 107  	5.1808    	-36.688232  
 108  	5.2297    	-36.650085  
 109  	5.2786    	-36.573730  
 110  	5.3275    	-36.582703  
 111  	5.3763    	-36.616394  
 112  	5.4252    	-36.712952  
 113  	5.4741    	-36.706238  
 114  	5.5230    	-36.672546  
 115  	5.5718    	-36.762390  
 116  	5.6207    	-36.730957  
 117  	5.6696    	-36.575928  
 118  	5.7185    	-36.436707  
 119  	5.7674    	-36.517578  
 120  	5.8162    	-36.488342  
 121  	5.8651    	-36.479370  
 122  	5.9140    	-36.391785  
 123  	5.9629    	-36.263733  
 124  	6.0117    	-35.996460  
 125  	6.0606    	-35.994202  
 126  	6.1095    	-35.690979  
 127  	6.1584    	-35.457397  
 128  	6.2072    	-34.889160  
 129  	6.2561    	-34.502808  
 130  	6.3050    	-34.069336  
 131  	6.3539    	-33.539246  
 132  	6.4027    	-32.292664  
 133  	6.4516    	-30.704651  
 134  	6.5005    	-28.759523  
 135  	6.5494    	-27.481506  
 136  	6.5982    	-26.344971  
 137  	6.6471    	-25.760986  
 138  	6.6960    	-25.251160  
 139  	6.7449    	-24.361694  
 140  	6.7937    	-22.061707  
 141  	6.8426    	-6.545654   
 142  	6.8915    	19.160889   
 143  	6.9404    	38.068481   
 144  	6.9892    	52.593998   
 145  	7.0381    	62.762081   
 146  	7.0870    	70.618896   
 147  	7.1359    	76.732788   
 148  	7.1848    	80.337769   
 149  	7.2336    	83.426140   
 150  	7.2825    	85.568848   
 151  	7.3314    	87.376953   
 152  	7.3803    	89.014404   
 153  	7.4291    	90.541748   
 154  	7.4780    	91.649048   
 155  	7.5269    	92.803589   
 156  	7.5758    	93.589722   
 157  	7.6246    	93.742432   
 158  	7.6735    	94.025391   
 159  	7.7224    	94.400505   
 160  	7.7713    	94.586914   
 161  	7.8201    	94.921631   
 162  	7.8690    	95.460693   
 163  	7.9179    	95.766113   
 164  	7.9668    	96.033447   
 165  	8.0156    	96.071655   
 166  	8.0645    	96.147949   
 167  	8.1134    	96.457886   
 168  	8.1623    	96.981323   
 169  	8.2111    	97.342896   
 170  	8.2600    	97.560791   
 171  	8.3089    	98.104370   
 172  	8.3578    	98.452515   
 173  	8.4066    	98.659058   
 174  	8.4555    	98.832031   
 175  	8.5044    	98.787109   
 176  	8.5533    	98.946648   
 177  	8.6022    	99.164429   
 178  	8.6510    	99.425049   
 179  	8.6999    	99.744019   
 180  	8.7488    	99.977539   
 181  	8.7977    	100.047241  
 182  	8.8465    	100.159554  
 183  	8.8954    	100.076416  
 184  	8.9443    	100.000000  
 185  	8.9932    	99.973022   
 186  	9.0420    	100.065186  
 187  	9.0909    	100.276245  
 188  	9.1398    	100.242554  
 189  	9.1887    	100.581787  
 190  	9.2375    	100.709839  
 191  	9.2864    	100.835571  
 192  	9.3353    	100.896240  
 193  	9.3842    	100.994995  
 194  	9.4330    	100.938843  
 195  	9.4819    	100.750244  
 196  	9.5308    	100.680542  
 197  	9.5797    	100.458252  
 198  	9.6285    	100.536873  
 199  	9.6774    	100.453735  
 200  	9.7263    	100.332397  
 201  	9.7752    	100.260620  
 202  	9.8240    	99.885498   
 203  	9.8729    	99.988770   
 204  	9.9218    	100.204468  
 205  	9.9707    	100.303223  
 206  	10.0196   	100.325684  
 207  	10.0684   	100.467155  
 208  	10.1173   	100.561523  
 209  	10.1662   	100.932121  
 210  	10.2151   	101.120842  
 211  	10.2639   	101.471191  
 212  	10.3128   	101.547600  
 213  	10.3617   	101.659912  
 214  	10.4106   	101.612671  
 215  	10.4594   	101.583496  
 216  	10.5083   	101.693604  
 217  	10.5572   	101.556511  
 218  	10.6061   	101.655388  
 219  	10.6549   	101.812622  
 220  	10.7038   	101.886726  
 221  	10.7527   	101.992302  
 222  	10.8016   	102.048462  
 223  	10.8504   	102.120361  
 224  	10.8993   	102.241570  
 225  	10.9482   	102.243896  
 226  	10.9971   	102.187744  
 227  	11.0459   	102.333740  
 228  	11.0948   	102.243896  
 229  	11.1437   	102.255127  
 230  	11.1926   	102.151726  
 231  	11.2414   	102.174202  
 232  	11.2903   	102.248413  
 233  	11.3392   	102.113655  
 234  	11.3881   	102.077637  
 235  	11.4370   	102.136108  
 236  	11.4858   	102.084343  
 237  	11.5347   	101.967651  
 238  	11.5836   	101.954094  
 239  	11.6325   	101.760986  
 240  	11.6813   	101.743042  
 241  	11.7302   	101.837288  
 242  	11.7791   	101.900269  
 243  	11.8280   	101.722778  
 244  	11.8768   	101.711548  
 245  	11.9257   	101.765495  
 246  	11.9746   	101.691284  
 247  	12.0235   	101.641968  
 248  	12.0723   	101.612671  
 249  	12.1212   	101.605949  
 250  	12.1701   	101.664421  
 251  	12.2190   	101.722778  
 252  	12.2678   	101.821655  
 253  	12.3167   	101.866577  
 254  	12.3656   	101.945190  
 255  	12.4145   	101.918213  
 256  	12.4633   	101.711548  
 257  	12.5122   	101.495964  
 258  	12.5611   	101.293823  
 259  	12.6100   	101.210686  
 260  	12.6588   	101.381348  
 261  	12.7077   	101.392578  
 262  	12.7566   	101.601440  
 263  	12.8055   	101.502686  
 264  	12.8544   	101.790161  
 265  	12.9032   	101.906982  
 266  	12.9521   	102.127075  
 267  	13.0010   	102.145020  
 268  	13.0499   	102.129272  
 269  	13.0987   	101.909180  
 270  	13.1476   	101.880005  
 271  	13.1965   	101.751953  
 272  	13.2454   	101.641968  
 273  	13.2942   	101.486931  
 274  	13.3431   	101.451050  
 275  	13.3920   	101.325195  
 276  	13.4409   	101.109612  
 277  	13.4897   	100.997314  
 278  	13.5386   	100.950073  
 279  	13.5875   	100.842278  
 280  	13.6364   	100.741211  
 281  	13.6852   	100.619995  
 282  	13.7341   	100.426750  
 283  	13.7830   	100.240356  
 284  	13.8319   	100.022461  
 285  	13.8807   	99.768677   
 286  	13.9296   	99.559814   
 287  	13.9785   	99.523804   
 288  	14.0274   	99.530640   
 289  	14.0762   	99.290283   
 290  	14.1251   	99.290283   
 291  	14.1740   	99.047729   
 292  	14.2229   	99.011719   
 293  	14.2718   	98.863525   
 294  	14.3206   	98.969116   
 295  	14.3695   	98.935425   
 296  	14.4184   	98.679321   
 297  	14.4673   	98.686035   
 298  	14.5161   	98.423218   
 299  	14.5650   	98.418823   
 300  	14.6139   	98.048218   
 301  	14.6628   	97.886475   
 302  	14.7116   	97.841553   
 303  	14.7605   	97.504639   
 304  	14.8094   	97.540527   
 305  	14.8583   	97.515869   
 306  	14.9071   	97.497925   
 307  	14.9560   	97.493408   
 308  	15.0049   	97.641602   
 309  	15.0538   	97.747192   
 310  	15.1026   	97.938110   
 311  	15.1515   	97.794312   
 312  	15.2004   	97.854980   
 313  	15.2493   	97.922363   
 314  	15.2981   	98.034668   
 315  	15.3470   	98.164909   
 316  	15.3959   	97.971802   
 317  	15.4448   	97.933594   
 318  	15.4936   	97.911133   
 319  	15.5425   	97.924683   
 320  	15.5914   	97.785400   
 321  	15.6403   	97.630371   
 322  	15.6892   	97.628166   
 323  	15.7380   	97.735962   
 324  	15.7869   	97.731445   
 325  	15.8358   	97.926880   
 326  	15.8847   	98.144775   
 327  	15.9335   	98.398560   
 328  	15.9824   	98.459229   
 329  	16.0313   	98.474976   
 330  	16.0802   	98.481689   
 331  	16.1290   	98.324463   
 332  	16.1779   	98.265991   
 333  	16.2268   	98.346924   
 334  	16.2757   	98.218872   
 335  	16.3245   	97.998779   
 336  	16.3734   	98.016724   
 337  	16.4223   	97.942627   
 338  	16.4712   	98.021240   
 339  	16.5200   	98.160522   
 340  	16.5689   	98.250366   
 341  	16.6178   	98.025757   
 342  	16.6667   	97.704468   
 343  	16.7155   	97.623650   
 344  	16.7644   	97.473145   
 345  	16.8133   	97.322632   
 346  	16.8622   	97.338379   
 347  	16.9110   	97.426025   
 348  	16.9599   	97.479858   
 349  	17.0088   	97.347412   
 350  	17.0577   	97.408081   
 351  	17.1066   	97.443970   
 352  	17.1554   	97.154175   
 353  	17.2043   	96.821777   
 354  	17.2532   	96.469109   
 355  	17.3021   	96.235596   
 356  	17.3509   	95.993042   
 357  	17.3998   	95.667358   
 358  	17.4487   	95.027222   
 359  	17.4976   	94.593628   
 360  	17.5464   	94.038940   
 361  	17.5953   	93.297729   
 362  	17.6442   	92.435181   
 363  	17.6931   	91.660278   
 364  	17.7419   	91.132446   
 365  	17.7908   	90.510254   
 366  	17.8397   	89.667969   
 367  	17.8886   	88.915527   
 368  	17.9374   	87.940796   
 369  	17.9863   	87.114136   
 370  	18.0352   	86.238159   
 371  	18.0841   	85.348755   
 372  	18.1329   	84.405396   
 373  	18.1818   	83.351929   
 374  	18.2307   	82.516479   
 375  	18.2796   	81.483276   
 376  	18.3284   	80.892456   
 377  	18.3773   	80.149048   
 378  	18.4262   	79.322510   
 379  	18.4751   	78.558838   
 380  	18.5239   	77.875977   
 381  	18.5728   	77.065186   
 382  	18.6217   	76.130737   
 383  	18.6706   	75.171753   
 384  	18.7195   	74.082397   
 385  	18.7683   	72.943604   
 386  	18.8172   	71.690308   
 387  	18.8661   	70.468384   
 388  	18.9150   	69.468872   
 389  	18.9638   	68.112183   
 390  	19.0127   	66.982422   
 391  	19.0616   	65.744873   
 392  	19.1105   	64.574585   
 393  	19.1593   	63.305538   
 394  	19.2082   	62.018555   
 395  	19.2571   	60.819210   
 396  	19.3060   	59.433350   
 397  	19.3548   	58.112671   
 398  	19.4037   	56.899780   
 399  	19.4526   	55.799194   
 400  	19.5015   	54.521118   
 401  	19.5503   	53.622681   
 402  	19.5992   	52.668087   
 403  	19.6481   	51.419312   
 404  	19.6970   	50.552246   
 405  	19.7458   	49.478638   
 406  	19.7947   	48.256714   
 407  	19.8436   	46.985474   
 408  	19.8925   	45.554688   
 409  	19.9413   	44.027344   
 410  	19.9902   	42.279907   
 411  	20.0391   	40.399899   
 412  	20.0880   	38.722107   
 413  	20.1369   	36.990356   
 414  	20.1857   	35.447266   
 415  	20.2346   	33.630188   
 416  	20.2835   	31.867004   
 417  	20.3324   	30.088135   
 418  	20.3812   	28.399046   
 419  	20.4301   	26.604433   
 420  	20.4790   	24.672791   
 421  	20.5279   	22.770325   
 422  	20.5767   	20.968994   
 423  	20.6256   	19.057556   
 424  	20.6745   	17.283142   
 425  	20.7234   	15.713135   
 426  	20.7722   	14.257629   
 427  	20.8211   	12.781982   
 428  	20.8700   	11.272582   
 429  	20.9189   	9.918213    
 430  	20.9677   	8.572754    
 431  	21.0166   	7.640625    
 432  	21.0655   	6.380615    
 433  	21.1144   	5.423767    
 434  	21.1632   	4.395020    
 435  	21.2121   	3.375305    
 436  	21.2610   	2.276978    
 437  	21.3099   	1.151672    
 438  	21.3587   	0.396973    
 439  	21.4076   	-0.665405   
 440  	21.4565   	-1.496460   
 441  	21.5054   	-2.482483   
 442  	21.5543   	-3.275391   
 443  	21.6031   	-4.122131   
 444  	21.6520   	-4.915039   
 445  	21.7009   	-5.638245   
 446  	21.7498   	-6.514221   
 447  	21.7986   	-7.405945   
 448  	21.8475   	-8.304382   
 449  	21.8964   	-9.223022   
 450  	21.9453   	-10.206787  
 451  	21.9941   	-11.134460  
 452  	22.0430   	-12.174377  
 453  	22.0919   	-13.346863  
 454  	22.1408   	-14.503601  
 455  	22.1896   	-15.734435  
 456  	22.2385   	-16.810303  
 457  	22.2874   	-17.955811  
 458  	22.3363   	-18.966553  
 459  	22.3851   	-19.986328  
 460  	22.4340   	-21.006042  
 461  	22.4829   	-22.129089  
 462  	22.5318   	-23.182495  
 463  	22.5806   	-23.955139  
 464  	22.6295   	-24.855835  
 465  	22.6784   	-25.558838  
 466  	22.7273   	-26.111391  
 467  	22.7761   	-26.677429  
 468  	22.8250   	-27.203003  
 469  	22.8739   	-27.587097  
 470  	22.9228   	-27.890318  
 471  	22.9717   	-28.236206  
 472  	23.0205   	-28.308105  
 473  	23.0694   	-28.568605  
 474  	23.1183   	-28.647215  
 475  	23.1672   	-28.865110  
 476  	23.2160   	-29.089722  
 477  	23.2649   	-29.377197  
 478  	23.3138   	-29.680420  
 479  	23.3627   	-29.927490  
 480  	23.4115   	-30.385742  
 481  	23.4604   	-30.594604  
 482  	23.5093   	-31.142639  
 483  	23.5582   	-31.594116  
 484  	23.6070   	-31.899595  
 485  	23.6559   	-32.427429  
 486  	23.7048   	-32.789063  
 487  	23.7537   	-33.128174  
 488  	23.8025   	-33.393250  
 489  	23.8514   	-33.620117  
 490  	23.9003   	-34.008667  
 491  	23.9492   	-34.239990  
 492  	23.9980   	-34.385986  
 493  	24.0469   	-34.392761  
 494  	24.0958   	-34.722900  
 495  	24.1447   	-34.707214  
 496  	24.1935   	-34.731934  
 497  	24.2424   	-34.945313  
 498  	24.2913   	-34.794800  
 499  	24.3402   	-34.736389  
 500  	24.3891   	-34.846436  
 501  	24.4379   	-34.794800  
 502  	24.4868   	-34.700439  
 503  	24.5357   	-34.426453  
 504  	24.5846   	-34.314148  
 505  	24.6334   	-33.943542  
 506  	24.6823   	-33.370789  
 507  	24.7312   	-32.669983  
 508  	24.7801   	-31.558165  
 509  	24.8289   	-30.401428  
 510  	24.8778   	-28.966187  
 511  	24.9267   	-28.267637  
 512  	24.9756   	-27.546629  
 513  	25.0244   	-26.621275  
 514  	25.0733   	-26.088926  
 515  	25.1222   	-24.568359  
 516  	25.1711   	-14.835999  
 517  	25.2199   	-0.411621   
 518  	25.2688   	13.651184   
 519  	25.3177   	27.035643   
 520  	25.3666   	37.657471   
 521  	25.4154   	47.158447   
 522  	25.4643   	54.590698   
 523  	25.5132   	60.985352   
 524  	25.5621   	65.318115   
 525  	25.6109   	68.577148   
 526  	25.6598   	71.568970   
 527  	25.7087   	74.210327   
 528  	25.7576   	76.034180   
 529  	25.8065   	77.858032   
 530  	25.8553   	79.497681   
 531  	25.9042   	80.980103   
 532  	25.9531   	81.817871   
 533  	26.0020   	82.884766   
 534  	26.0508   	83.917969   
 535  	26.0997   	84.663696   
 536  	26.1486   	85.198242   
 537  	26.1975   	86.004639   
 538  	26.2463   	86.361694   
 539  	26.2952   	86.840210   
 540  	26.3441   	87.159058   
 541  	26.3930   	87.549927   
 542  	26.4418   	88.167603   
 543  	26.4907   	88.619019   
 544  	26.5396   	89.066040   
 545  	26.5885   	89.531006   
 546  	26.6373   	90.074585   
 547  	26.6862   	90.494507   
 548  	26.7351   	90.714722   
 549  	26.7840   	91.166138   
 550  	26.8328   	91.530029   
 551  	26.8817   	91.698486   
 552  	26.9306   	91.923096   
 553  	26.9795   	92.302612   
 554  	27.0283   	92.736206   
 555  	27.0772   	92.884399   
 556  	27.1261   	93.124756   
 557  	27.1750   	93.502075   
 558  	27.2239   	93.690796   
 559  	27.2727   	93.888428   
 560  	27.3216   	94.452148   
 561  	27.3705   	95.054077   
 562  	27.4194   	95.757202   
 563  	27.4682   	96.534302   
 564  	27.5171   	97.484375   
 565  	27.5660   	98.281738   
 566  	27.6149   	99.160027   
 567  	27.6637   	100.004517  
 568  	27.7126   	101.051140  
 569  	27.7615   	108.833862  
 570  	27.8104   	119.583740  
 571  	27.8592   	125.084351  
 572  	27.9081   	127.651733  
 573  	27.9570   	127.503418  
 574  	28.0059   	125.940186  
 575  	28.0547   	123.667114  
 576  	28.1036   	121.407593  
 577  	28.1525   	119.053596  
 578  	28.2014   	116.962524  
 579  	28.2502   	114.640007  
 580  	28.2991   	112.845459  
 581  	28.3480   	111.133911  
 582  	28.3969   	109.656006  
 583  	28.4457   	108.324097  
 584  	28.4946   	107.077515  
 585  	28.5435   	105.988152  
 586  	28.5924   	104.966187  
 587  	28.6413   	104.087898  
 588  	28.6901   	103.589233  
 589  	28.7390   	102.944695  
 590  	28.7879   	102.320183  
 591  	28.8368   	102.050659  
 592  	28.8856   	101.597038  
 593  	28.9345   	101.282593  
 594  	28.9834   	101.028687  
 595  	29.0323   	100.871460  
 596  	29.0811   	100.631226  
 597  	29.1300   	100.548096  
 598  	29.1789   	100.339233  
 599  	29.2278   	100.359383  
 600  	29.2766   	100.379639  
 601  	29.3255   	100.249390  
 602  	29.3744   	100.303223  
 603  	29.4233   	100.179680  
 604  	29.4721   	100.098877  
 605  	29.5210   	100.148308  
 606  	29.5699   	100.182007  
 607  	29.6188   	99.898926   
 608  	29.6676   	99.977539   
 609  	29.7165   	100.029175  
 610  	29.7654   	100.051636  
 611  	29.8143   	99.880981   
 612  	29.8631   	99.694580   
 613  	29.9120   	99.377808   
 614  	29.9609   	99.326172   
 615  	30.0098   	99.061157   
 616  	30.0587   	99.025269   
 617  	30.1075   	98.807373   
 618  	30.1564   	98.917358   
 619  	30.2053   	99.083618   
 620  	30.2542   	99.189209   
 621  	30.3030   	99.173462   
 622  	30.3519   	99.058960   
 623  	30.4008   	99.022949   
 624  	30.4497   	98.859009   
 625  	30.4985   	98.618652   
 626  	30.5474   	98.528809   
 627  	30.5963   	98.519897   
 628  	30.6452   	98.456909   
 629  	30.6940   	98.198608   
 630  	30.7429   	98.016724   
 631  	30.7918   	97.859497   
 632  	30.8407   	97.648315   
 633  	30.8895   	97.473145   
 634  	30.9384   	97.322632   
 635  	30.9873   	97.241814   
 636  	31.0362   	97.192383   
 637  	31.0850   	97.259766   
 638  	31.1339   	97.291260   
 639  	31.1828   	97.309204   
 640  	31.2317   	97.297974   
 641  	31.2805   	97.212646   
 642  	31.3294   	97.246330   
 643  	31.3783   	97.104858   
 644  	31.4272   	96.904907   
