
      	X(nS)     	Ch1(mV)      


 1    	0.0000    	-22.492920  
 2    	0.0489    	-22.432312  
 3    	0.0978    	-22.564819  
 4    	0.1466    	-22.735535  
 5    	0.1955    	-22.782715  
 6    	0.2444    	-22.679382  
 7    	0.2933    	-22.690613  
 8    	0.3421    	-22.659180  
 9    	0.3910    	-22.771484  
 10   	0.4399    	-22.823120  
 11   	0.4888    	-22.713074  
 12   	0.5376    	-22.814148  
 13   	0.5865    	-22.818604  
 14   	0.6354    	-22.634460  
 15   	0.6843    	-22.722046  
 16   	0.7331    	-22.814148  
 17   	0.7820    	-22.800659  
 18   	0.8309    	-22.787170  
 19   	0.8798    	-22.746765  
 20   	0.9286    	-22.708557  
 21   	0.9775    	-22.784912  
 22   	1.0264    	-22.820862  
 23   	1.0753    	-22.890503  
 24   	1.1241    	-22.906250  
 25   	1.1730    	-22.863525  
 26   	1.2219    	-22.892761  
 27   	1.2708    	-22.766968  
 28   	1.3196    	-22.764709  
 29   	1.3685    	-22.850098  
 30   	1.4174    	-22.811890  
 31   	1.4663    	-22.757996  
 32   	1.5152    	-22.798401  
 33   	1.5640    	-22.739990  
 34   	1.6129    	-22.690613  
 35   	1.6618    	-22.616455  
 36   	1.7107    	-22.832092  
 37   	1.7595    	-22.701843  
 38   	1.8084    	-22.778196  
 39   	1.8573    	-22.789429  
 40   	1.9062    	-22.706299  
 41   	1.9550    	-22.713074  
 42   	2.0039    	-22.677124  
 43   	2.0528    	-22.533386  
 44   	2.1017    	-22.600769  
 45   	2.1505    	-22.591797  
 46   	2.1994    	-22.562561  
 47   	2.2483    	-22.495178  
 48   	2.2972    	-22.452515  
 49   	2.3460    	-22.360413  
 50   	2.3949    	-22.569336  
 51   	2.4438    	-22.722046  
 52   	2.4927    	-22.618713  
 53   	2.5415    	-22.652405  
 54   	2.5904    	-22.708557  
 55   	2.6393    	-22.715332  
 56   	2.6882    	-22.780457  
 57   	2.7370    	-22.645691  
 58   	2.7859    	-22.818604  
 59   	2.8348    	-22.704102  
 60   	2.8837    	-22.715332  
 61   	2.9326    	-22.524414  
 62   	2.9814    	-22.609741  
 63   	3.0303    	-22.533386  
 64   	3.0792    	-22.535645  
 65   	3.1281    	-22.731018  
 66   	3.1769    	-22.519897  
 67   	3.2258    	-22.432312  
 68   	3.2747    	-22.486206  
 69   	3.3236    	-22.531128  
 70   	3.3724    	-22.495178  
 71   	3.4213    	-22.515381  
 72   	3.4702    	-22.656921  
 73   	3.5191    	-22.609741  
 74   	3.5679    	-22.513184  
 75   	3.6168    	-22.454773  
 76   	3.6657    	-22.373901  
 77   	3.7146    	-22.468262  
 78   	3.7634    	-22.452515  
 79   	3.8123    	-22.430054  
 80   	3.8612    	-22.344727  
 81   	3.9101    	-22.528870  
 82   	3.9589    	-22.506409  
 83   	4.0078    	-22.663635  
 84   	4.0567    	-22.447998  
 85   	4.1056    	-22.311035  
 86   	4.1544    	-22.180725  
 87   	4.2033    	-22.362671  
 88   	4.2522    	-22.340210  
 89   	4.3011    	-22.378418  
 90   	4.3500    	-22.351440  
 91   	4.3988    	-22.306519  
 92   	4.4477    	-22.252625  
 93   	4.4966    	-22.315491  
 94   	4.5455    	-22.227905  
 95   	4.5943    	-22.122314  
 96   	4.6432    	-22.167236  
 97   	4.6921    	-22.191956  
 98   	4.7410    	-22.104370  
 99   	4.7898    	-22.207703  
 100  	4.8387    	-22.070679  
 101  	4.8876    	-22.108887  
 102  	4.9365    	-22.077393  
 103  	4.9853    	-22.068420  
 104  	5.0342    	-22.025755  
 105  	5.0831    	-22.010010  
 106  	5.1320    	-21.929199  
 107  	5.1808    	-21.888733  
 108  	5.2297    	-21.976318  
 109  	5.2786    	-21.974121  
 110  	5.3275    	-21.974121  
 111  	5.3763    	-21.965088  
 112  	5.4252    	-21.848328  
 113  	5.4741    	-21.935913  
 114  	5.5230    	-21.756226  
 115  	5.5718    	-21.753967  
 116  	5.6207    	-21.713562  
 117  	5.6696    	-21.866272  
 118  	5.7185    	-21.787659  
 119  	5.7674    	-21.493408  
 120  	5.8162    	-21.394592  
 121  	5.8651    	-21.255371  
 122  	5.9140    	-21.399109  
 123  	5.9629    	-21.304749  
 124  	6.0117    	-21.248596  
 125  	6.0606    	-21.068909  
 126  	6.1095    	-20.907227  
 127  	6.1584    	-20.581543  
 128  	6.2072    	-20.201904  
 129  	6.2561    	-19.687561  
 130  	6.3050    	-18.968811  
 131  	6.3539    	-18.391602  
 132  	6.4027    	-17.111328  
 133  	6.4516    	-15.377318  
 134  	6.5005    	-13.733154  
 135  	6.5494    	-12.412476  
 136  	6.5982    	-11.487061  
 137  	6.6471    	-11.073792  
 138  	6.6960    	-10.399963  
 139  	6.7449    	-9.546448   
 140  	6.7937    	-6.999389   
 141  	6.8426    	6.827576    
 142  	6.8915    	33.068665   
 143  	6.9404    	52.005493   
 144  	6.9892    	66.342285   
 145  	7.0381    	77.074097   
 146  	7.0870    	84.749023   
 147  	7.1359    	90.793335   
 148  	7.1848    	94.438721   
 149  	7.2336    	97.616943   
 150  	7.2825    	100.220085  
 151  	7.3314    	101.814812  
 152  	7.3803    	103.546631  
 153  	7.4291    	104.914429  
 154  	7.4780    	106.170052  
 155  	7.5269    	107.261589  
 156  	7.5758    	107.933220  
 157  	7.6246    	108.263428  
 158  	7.6735    	108.517212  
 159  	7.7224    	108.876579  
 160  	7.7713    	108.921509  
 161  	7.8201    	109.314575  
 162  	7.8690    	109.714355  
 163  	7.9179    	110.195061  
 164  	7.9668    	110.592659  
 165  	8.0156    	110.884644  
 166  	8.0645    	111.046265  
 167  	8.1134    	111.241699  
 168  	8.1623    	111.540405  
 169  	8.2111    	111.738159  
 170  	8.2600    	112.086304  
 171  	8.3089    	112.589355  
 172  	8.3578    	112.984741  
 173  	8.4066    	113.148674  
 174  	8.4555    	113.260994  
 175  	8.5044    	113.204834  
 176  	8.5533    	113.501343  
 177  	8.6022    	113.739380  
 178  	8.6510    	113.950562  
 179  	8.6999    	114.094231  
 180  	8.7488    	114.307617  
 181  	8.7977    	114.494019  
 182  	8.8465    	114.444702  
 183  	8.8954    	114.372803  
 184  	8.9443    	114.541260  
 185  	8.9932    	114.550163  
 186  	9.0420    	114.680542  
 187  	9.0909    	114.929810  
 188  	9.1398    	115.129761  
 189  	9.1887    	115.233025  
 190  	9.2375    	115.403679  
 191  	9.2864    	115.540764  
 192  	9.3353    	115.686768  
 193  	9.3842    	115.621574  
 194  	9.4330    	115.408203  
 195  	9.4819    	115.367798  
 196  	9.5308    	115.284676  
 197  	9.5797    	115.199341  
 198  	9.6285    	115.026360  
 199  	9.6774    	115.055534  
 200  	9.7263    	115.208374  
 201  	9.7752    	114.833252  
 202  	9.8240    	114.777092  
 203  	9.8729    	114.720947  
 204  	9.9218    	114.797234  
 205  	9.9707    	114.848999  
 206  	10.0196   	115.138672  
 207  	10.0684   	115.223991  
 208  	10.1173   	115.295898  
 209  	10.1662   	115.495850  
 210  	10.2151   	115.511604  
 211  	10.2639   	115.749626  
 212  	10.3128   	115.722656  
 213  	10.3617   	115.886597  
 214  	10.4106   	115.897820  
 215  	10.4594   	115.778801  
 216  	10.5083   	116.057381  
 217  	10.5572   	116.046135  
 218  	10.6061   	116.129272  
 219  	10.6549   	116.430176  
 220  	10.7038   	116.356079  
 221  	10.7527   	116.396484  
 222  	10.8016   	116.744629  
 223  	10.8504   	116.614380  
 224  	10.8993   	116.672722  
 225  	10.9482   	116.760368  
 226  	10.9971   	116.877197  
 227  	11.0459   	116.823242  
 228  	11.0948   	116.917595  
 229  	11.1437   	116.949089  
 230  	11.1926   	117.011963  
 231  	11.2414   	116.809807  
 232  	11.2903   	116.672722  
 233  	11.3392   	116.495361  
 234  	11.3881   	116.524536  
 235  	11.4370   	116.616577  
 236  	11.4858   	116.670525  
 237  	11.5347   	116.515503  
 238  	11.5836   	116.383049  
 239  	11.6325   	116.376343  
 240  	11.6813   	116.281982  
 241  	11.7302   	116.302124  
 242  	11.7791   	116.367310  
 243  	11.8280   	116.313347  
 244  	11.8768   	116.216805  
 245  	11.9257   	116.288696  
 246  	11.9746   	116.061890  
 247  	12.0235   	116.068604  
 248  	12.0723   	115.972046  
 249  	12.1212   	115.976433  
 250  	12.1701   	115.927116  
 251  	12.2190   	116.007927  
 252  	12.2678   	116.023682  
 253  	12.3167   	116.313347  
 254  	12.3656   	116.396484  
 255  	12.4145   	116.391968  
 256  	12.4633   	116.234734  
 257  	12.5122   	116.189819  
 258  	12.5611   	115.913574  
 259  	12.6100   	115.720467  
 260  	12.6588   	115.587891  
 261  	12.7077   	115.585693  
 262  	12.7566   	115.567749  
 263  	12.8055   	115.769897  
 264  	12.8544   	115.785522  
 265  	12.9032   	115.989990  
 266  	12.9521   	116.129272  
 267  	13.0010   	116.115715  
 268  	13.0499   	115.960815  
 269  	13.0987   	115.915886  
 270  	13.1476   	115.918083  
 271  	13.1965   	115.915886  
 272  	13.2454   	115.778801  
 273  	13.2942   	115.482292  
 274  	13.3431   	115.444214  
 275  	13.3920   	115.383545  
 276  	13.4409   	115.352043  
 277  	13.4897   	115.316162  
 278  	13.5386   	115.311638  
 279  	13.5875   	115.042114  
 280  	13.6364   	114.965691  
 281  	13.6852   	114.705200  
 282  	13.7341   	114.572632  
 283  	13.7830   	114.170647  
 284  	13.8319   	113.898804  
 285  	13.8807   	113.773071  
 286  	13.9296   	113.546257  
 287  	13.9785   	113.402466  
 288  	14.0274   	113.438347  
 289  	14.0762   	113.218262  
 290  	14.1251   	113.227295  
 291  	14.1740   	113.218262  
 292  	14.2229   	113.045288  
 293  	14.2718   	112.897095  
 294  	14.3206   	112.822990  
 295  	14.3695   	112.663452  
 296  	14.4184   	112.450073  
 297  	14.4673   	112.445671  
 298  	14.5161   	112.326538  
 299  	14.5650   	112.310913  
 300  	14.6139   	112.223267  
 301  	14.6628   	112.050285  
 302  	14.7116   	112.023315  
 303  	14.7605   	112.036865  
 304  	14.8094   	111.904297  
 305  	14.8583   	111.944702  
 306  	14.9071   	111.922234  
 307  	14.9560   	111.778564  
 308  	15.0049   	111.942513  
 309  	15.0538   	111.868408  
 310  	15.1026   	112.077271  
 311  	15.1515   	112.133423  
 312  	15.2004   	112.104248  
 313  	15.2493   	112.279427  
 314  	15.2981   	112.229988  
 315  	15.3470   	112.101936  
 316  	15.3959   	112.095215  
 317  	15.4448   	112.077271  
 318  	15.4936   	111.926758  
 319  	15.5425   	111.973999  
 320  	15.5914   	111.897583  
 321  	15.6403   	111.942513  
 322  	15.6892   	111.915527  
 323  	15.7380   	111.955933  
 324  	15.7869   	111.872925  
 325  	15.8358   	111.915527  
 326  	15.8847   	112.090691  
 327  	15.9335   	112.209839  
 328  	15.9824   	112.331055  
 329  	16.0313   	112.344604  
 330  	16.0802   	112.510742  
 331  	16.1290   	112.584831  
 332  	16.1779   	112.494995  
 333  	16.2268   	112.375969  
 334  	16.2757   	112.319832  
 335  	16.3245   	112.438850  
 336  	16.3734   	112.212036  
 337  	16.4223   	112.389526  
 338  	16.4712   	112.504028  
 339  	16.5200   	112.596062  
 340  	16.5689   	112.315308  
 341  	16.6178   	112.425407  
 342  	16.6667   	112.333374  
 343  	16.7155   	112.104248  
 344  	16.7644   	111.841423  
 345  	16.8133   	111.807739  
 346  	16.8622   	111.592155  
 347  	16.9110   	111.690918  
 348  	16.9599   	111.619019  
 349  	17.0088   	111.693245  
 350  	17.0577   	111.585320  
 351  	17.1066   	111.185547  
 352  	17.1554   	111.037346  
 353  	17.2043   	110.767822  
 354  	17.2532   	110.563347  
 355  	17.3021   	110.219727  
 356  	17.3509   	110.125359  
 357  	17.3998   	109.667236  
 358  	17.4487   	109.204460  
 359  	17.4976   	108.858643  
 360  	17.5464   	108.220695  
 361  	17.5953   	107.715324  
 362  	17.6442   	106.902214  
 363  	17.6931   	106.179085  
 364  	17.7419   	105.413086  
 365  	17.7908   	104.696655  
 366  	17.8397   	103.881226  
 367  	17.8886   	103.072632  
 368  	17.9374   	102.167480  
 369  	17.9863   	101.309441  
 370  	18.0352   	100.217888  
 371  	18.0841   	99.279053   
 372  	18.1329   	98.438965   
 373  	18.1818   	97.504639   
 374  	18.2307   	96.808350   
 375  	18.2796   	95.873901   
 376  	18.3284   	95.130493   
 377  	18.3773   	94.373535   
 378  	18.4262   	93.728882   
 379  	18.4751   	93.066284   
 380  	18.5239   	92.170166   
 381  	18.5728   	91.323364   
 382  	18.6217   	90.429443   
 383  	18.6706   	89.605103   
 384  	18.7195   	88.657227   
 385  	18.7683   	87.412956   
 386  	18.8172   	86.231445   
 387  	18.8661   	85.032104   
 388  	18.9150   	83.846069   
 389  	18.9638   	82.700562   
 390  	19.0127   	81.478760   
 391  	19.0616   	80.355713   
 392  	19.1105   	78.954102   
 393  	19.1593   	77.687378   
 394  	19.2082   	76.279053   
 395  	19.2571   	75.010010   
 396  	19.3060   	73.783569   
 397  	19.3548   	72.516846   
 398  	19.4037   	71.196167   
 399  	19.4526   	69.929321   
 400  	19.5015   	68.839966   
 401  	19.5503   	67.981934   
 402  	19.5992   	66.986938   
 403  	19.6481   	65.976196   
 404  	19.6970   	64.931763   
 405  	19.7458   	63.622314   
 406  	19.7947   	62.465572   
 407  	19.8436   	61.232418   
 408  	19.8925   	59.794922   
 409  	19.9413   	58.391109   
 410  	19.9902   	56.556026   
 411  	20.0391   	54.943359   
 412  	20.0880   	53.348633   
 413  	20.1369   	51.592159   
 414  	20.1857   	49.948120   
 415  	20.2346   	48.173702   
 416  	20.2835   	46.552002   
 417  	20.3324   	44.764038   
 418  	20.3812   	43.162598   
 419  	20.4301   	40.882813   
 420  	20.4790   	39.245422   
 421  	20.5279   	37.351990   
 422  	20.5767   	35.498962   
 423  	20.6256   	33.508911   
 424  	20.6745   	31.880491   
 425  	20.7234   	30.106079   
 426  	20.7722   	28.632627   
 427  	20.8211   	27.208618   
 428  	20.8700   	25.625120   
 429  	20.9189   	24.452637   
 430  	20.9677   	23.201599   
 431  	21.0166   	22.150391   
 432  	21.0655   	20.793760   
 433  	21.1144   	19.729126   
 434  	21.1632   	18.752075   
 435  	21.2121   	17.696411   
 436  	21.2610   	16.739563   
 437  	21.3099   	15.731079   
 438  	21.3587   	14.962891   
 439  	21.4076   	13.956664   
 440  	21.4565   	13.105408   
 441  	21.5054   	12.105896   
 442  	21.5543   	11.225403   
 443  	21.6031   	10.266357   
 444  	21.6520   	9.549805    
 445  	21.7009   	8.721008    
 446  	21.7498   	7.829346    
 447  	21.7986   	6.991516    
 448  	21.8475   	6.218872    
 449  	21.8964   	5.149719    
 450  	21.9453   	4.293945    
 451  	21.9941   	3.157471    
 452  	22.0430   	2.218567    
 453  	22.0919   	1.012451    
 454  	22.1408   	-0.160034   
 455  	22.1896   	-1.442566   
 456  	22.2385   	-2.437561   
 457  	22.2874   	-3.396667   
 458  	22.3363   	-4.566895   
 459  	22.3851   	-5.555176   
 460  	22.4340   	-6.619812   
 461  	22.4829   	-7.812500   
 462  	22.5318   	-8.681702   
 463  	22.5806   	-9.386963   
 464  	22.6295   	-10.440430  
 465  	22.6784   	-11.296143  
 466  	22.7273   	-11.792542  
 467  	22.7761   	-12.412476  
 468  	22.8250   	-12.980713  
 469  	22.8739   	-13.486083  
 470  	22.9228   	-13.641113  
 471  	22.9717   	-13.903870  
 472  	23.0205   	-14.103760  
 473  	23.0694   	-14.305908  
 474  	23.1183   	-14.523804  
 475  	23.1672   	-14.622619  
 476  	23.2160   	-14.896667  
 477  	23.2649   	-15.186400  
 478  	23.3138   	-15.462646  
 479  	23.3627   	-15.729980  
 480  	23.4115   	-16.120789  
 481  	23.4604   	-16.556519  
 482  	23.5093   	-17.176453  
 483  	23.5582   	-17.699768  
 484  	23.6070   	-17.991760  
 485  	23.6559   	-18.436523  
 486  	23.7048   	-18.899170  
 487  	23.7537   	-19.054199  
 488  	23.8025   	-19.514648  
 489  	23.8514   	-19.725769  
 490  	23.9003   	-20.136780  
 491  	23.9492   	-20.314207  
 492  	23.9980   	-20.577026  
 493  	24.0469   	-20.687073  
 494  	24.0958   	-20.909424  
 495  	24.1447   	-20.999268  
 496  	24.1935   	-21.181213  
 497  	24.2424   	-21.257568  
 498  	24.2913   	-21.423828  
 499  	24.3402   	-21.268799  
 500  	24.3891   	-21.223877  
 501  	24.4379   	-21.232910  
 502  	24.4868   	-21.349670  
 503  	24.5357   	-21.513672  
 504  	24.5846   	-21.531616  
 505  	24.6334   	-21.718018  
 506  	24.6823   	-21.621460  
 507  	24.7312   	-21.497925  
 508  	24.7801   	-21.127319  
 509  	24.8289   	-20.698301  
 510  	24.8778   	-20.320984  
 511  	24.9267   	-20.190674  
 512  	24.9756   	-20.343445  
 513  	25.0244   	-19.948120  
 514  	25.0733   	-21.866272  
 515  	25.1222   	-22.295288  
 516  	25.1711   	-20.929688  
 517  	25.2199   	-17.239319  
 518  	25.2688   	-11.630859  
 519  	25.3177   	-9.618347   
 520  	25.3666   	-6.568115   
 521  	25.4154   	-1.534668   
 522  	25.4643   	3.909912    
 523  	25.5132   	7.429504    
 524  	25.5621   	9.221924    
 525  	25.6109   	8.482910    
 526  	25.6598   	6.068359    
 527  	25.7087   	3.348389    
 528  	25.7576   	1.522278    
 529  	25.8065   	1.147217    
 530  	25.8553   	1.834473    
 531  	25.9042   	3.130493    
 532  	25.9531   	4.125488    
 533  	26.0020   	4.179443    
 534  	26.0508   	3.429199    
 535  	26.0997   	2.517334    
 536  	26.1486   	1.726685    
 537  	26.1975   	1.668274    
 538  	26.2463   	2.020935    
 539  	26.2952   	2.577942    
 540  	26.3441   	2.885681    
 541  	26.3930   	3.083313    
 542  	26.4418   	2.764404    
 543  	26.4907   	2.557739    
 544  	26.5396   	2.384766    
 545  	26.5885   	2.389282    
 546  	26.6373   	2.499329    
 547  	26.6862   	2.905884    
 548  	26.7351   	3.173157    
 549  	26.7840   	3.316895    
 550  	26.8328   	3.236084    
 551  	26.8817   	3.119263    
 552  	26.9306   	3.004700    
 553  	26.9795   	2.845215    
 554  	27.0283   	2.775635    
 555  	27.0772   	2.971008    
 556  	27.1261   	3.382080    
 557  	27.1750   	3.391052    
 558  	27.2239   	3.676270    
 559  	27.2727   	3.869446    
 560  	27.3216   	4.267029    
 561  	27.3705   	4.637634    
 562  	27.4194   	5.053162    
 563  	27.4682   	5.904419    
 564  	27.5171   	6.560303    
 565  	27.5660   	7.303711    
 566  	27.6149   	8.078613    
 567  	27.6637   	8.938904    
 568  	27.7126   	9.945128    
 569  	27.7615   	17.346008   
 570  	27.8104   	28.250792   
 571  	27.8592   	34.232178   
 572  	27.9081   	36.696106   
 573  	27.9570   	36.664673   
 574  	28.0059   	34.980103   
 575  	28.0547   	32.776672   
 576  	28.1036   	30.496885   
 577  	28.1525   	27.859985   
 578  	28.2014   	25.728453   
 579  	28.2502   	23.390259   
 580  	28.2991   	21.481079   
 581  	28.3480   	19.688721   
 582  	28.3969   	18.192810   
 583  	28.4457   	16.692383   
 584  	28.4946   	15.421143   
 585  	28.5435   	14.095947   
 586  	28.5924   	12.995360   
 587  	28.6413   	12.042969   
 588  	28.6901   	11.245605   
 589  	28.7390   	10.583008   
 590  	28.7879   	10.048462   
 591  	28.8368   	9.619446    
 592  	28.8856   	9.107361    
 593  	28.9345   	8.806396    
 594  	28.9834   	8.354919    
 595  	29.0323   	8.121338    
 596  	29.0811   	7.946105    
 597  	29.1300   	7.588989    
 598  	29.1789   	7.526123    
 599  	29.2278   	7.393555    
 600  	29.2766   	7.225098    
 601  	29.3255   	7.164490    
 602  	29.3744   	7.290283    
 603  	29.4233   	7.198181    
 604  	29.4721   	7.016236    
 605  	29.5210   	6.879211    
 606  	29.5699   	6.780396    
 607  	29.6188   	6.636658    
 608  	29.6676   	6.497375    
 609  	29.7165   	6.275024    
 610  	29.7654   	6.205383    
 611  	29.8143   	6.097595    
 612  	29.8631   	6.007751    
 613  	29.9120   	5.859497    
 614  	29.9609   	5.881958    
 615  	30.0098   	5.758423    
 616  	30.0587   	5.594482    
 617  	30.1075   	5.430481    
 618  	30.1564   	5.408020    
 619  	30.2053   	5.183410    
 620  	30.2542   	5.322693    
 621  	30.3030   	5.540527    
 622  	30.3519   	5.576477    
 623  	30.4008   	5.486633    
 624  	30.4497   	5.448486    
 625  	30.4985   	5.300232    
 626  	30.5474   	5.255310    
 627  	30.5963   	5.165466    
 628  	30.6452   	4.806091    
 629  	30.6940   	4.776855    
 630  	30.7429   	4.725220    
 631  	30.7918   	4.740967    
 632  	30.8407   	4.581482    
 633  	30.8895   	4.619629    
 634  	30.9384   	4.655579    
 635  	30.9873   	4.329895    
 636  	31.0362   	4.300720    
 637  	31.0850   	4.365845    
 638  	31.1339   	4.213135    
 639  	31.1828   	4.298462    
 640  	31.2317   	4.655579    
 641  	31.2805   	4.594971    
 642  	31.3294   	4.603943    
 643  	31.3783   	4.698242    
 644  	31.4272   	4.603943    
